#FORMAT	     : EMSA/MAS Spectral Data File
#VERSION     : 1.0
#TITLE       : CoO(0350-1360eV)
#DATE        : 
#TIME        : 
#OWNER       : 
#NPOINTS     : 1024
#NCOLUMNS    : 1
#XUNITS      : eV
#YUNITS      : 
#DATATYPE    : XY
#XPERCHAN    : 1.000000e+000
#OFFSET      : 3.420000e+002
#SPECTRUM    : Spectral Data Starts Here
3.420000e+002, 1.000000e-001
3.430000e+002, 1.000000e-001
3.440000e+002, 1.000000e-001
3.450000e+002, 1.000000e-001
3.460000e+002, 1.000000e-001
3.470000e+002, 1.000000e-001
3.480000e+002, 1.000000e-001
3.490000e+002, 1.000000e-001
3.500000e+002, 1.000000e-001
3.510000e+002, 1.000000e-001
3.520000e+002, 1.000000e-001
3.530000e+002, 1.923000e+003
3.540000e+002, 1.963200e+004
3.550000e+002, 2.354500e+004
3.560000e+002, 3.173000e+004
3.570000e+002, 3.778800e+004
3.580000e+002, 3.719400e+004
3.590000e+002, 3.892100e+004
3.600000e+002, 4.282100e+004
3.610000e+002, 4.268400e+004
3.620000e+002, 4.212200e+004
3.630000e+002, 4.190800e+004
3.640000e+002, 4.426700e+004
3.650000e+002, 4.630600e+004
3.660000e+002, 5.644000e+004
3.670000e+002, 6.202200e+004
3.680000e+002, 6.682000e+004
3.690000e+002, 7.087510e+004
3.700000e+002, 7.430300e+004
3.710000e+002, 7.542200e+004
3.720000e+002, 7.908410e+004
3.730000e+002, 8.236110e+004
3.740000e+002, 8.696000e+004
3.750000e+002, 9.454400e+004
3.760000e+002, 9.619500e+004
3.770000e+002, 9.515410e+004
3.780000e+002, 9.466000e+004
3.790000e+002, 9.424100e+004
3.800000e+002, 9.352410e+004
3.810000e+002, 9.275400e+004
3.820000e+002, 9.256200e+004
3.830000e+002, 9.158200e+004
3.840000e+002, 9.086010e+004
3.850000e+002, 9.050800e+004
3.860000e+002, 8.930400e+004
3.870000e+002, 8.899300e+004
3.880000e+002, 8.758100e+004
3.890000e+002, 8.735300e+004
3.900000e+002, 8.752100e+004
3.910000e+002, 8.689500e+004
3.920000e+002, 8.620100e+004
3.930000e+002, 8.578900e+004
3.940000e+002, 8.463800e+004
3.950000e+002, 8.413810e+004
3.960000e+002, 8.353200e+004
3.970000e+002, 8.348200e+004
3.980000e+002, 8.302100e+004
3.990000e+002, 8.143300e+004
4.000000e+002, 8.156190e+004
4.010000e+002, 8.054710e+004
4.020000e+002, 8.068000e+004
4.030000e+002, 8.024800e+004
4.040000e+002, 7.867100e+004
4.050000e+002, 7.859100e+004
4.060000e+002, 7.864110e+004
4.070000e+002, 7.771500e+004
4.080000e+002, 7.733000e+004
4.090000e+002, 7.659700e+004
4.100000e+002, 7.652700e+004
4.110000e+002, 7.579200e+004
4.120000e+002, 7.495400e+004
4.130000e+002, 7.449000e+004
4.140000e+002, 7.485710e+004
4.150000e+002, 7.386000e+004
4.160000e+002, 7.334000e+004
4.170000e+002, 7.314800e+004
4.180000e+002, 7.227500e+004
4.190000e+002, 7.215400e+004
4.200000e+002, 7.147300e+004
4.210000e+002, 7.080600e+004
4.220000e+002, 7.020000e+004
4.230000e+002, 7.021700e+004
4.240000e+002, 6.988200e+004
4.250000e+002, 6.897400e+004
4.260000e+002, 6.829200e+004
4.270000e+002, 6.850700e+004
4.280000e+002, 6.807600e+004
4.290000e+002, 6.732900e+004
4.300000e+002, 6.699100e+004
4.310000e+002, 6.656800e+004
4.320000e+002, 6.624600e+004
4.330000e+002, 6.525600e+004
4.340000e+002, 6.516010e+004
4.350000e+002, 6.488800e+004
4.360000e+002, 6.399600e+004
4.370000e+002, 6.384010e+004
4.380000e+002, 6.335000e+004
4.390000e+002, 6.345910e+004
4.400000e+002, 6.258800e+004
4.410000e+002, 6.236300e+004
4.420000e+002, 6.222800e+004
4.430000e+002, 6.176700e+004
4.440000e+002, 6.108900e+004
4.450000e+002, 6.092300e+004
4.460000e+002, 6.052000e+004
4.470000e+002, 6.038200e+004
4.480000e+002, 5.923100e+004
4.490000e+002, 5.930100e+004
4.500000e+002, 5.884900e+004
4.510000e+002, 5.879500e+004
4.520000e+002, 5.866000e+004
4.530000e+002, 5.792900e+004
4.540000e+002, 5.750500e+004
4.550000e+002, 5.756300e+004
4.560000e+002, 5.654410e+004
4.570000e+002, 5.622410e+004
4.580000e+002, 5.635600e+004
4.590000e+002, 5.568700e+004
4.600000e+002, 5.556300e+004
4.610000e+002, 5.517500e+004
4.620000e+002, 5.451300e+004
4.630000e+002, 5.354800e+004
4.640000e+002, 5.444800e+004
4.650000e+002, 5.407200e+004
4.660000e+002, 5.372500e+004
4.670000e+002, 5.348800e+004
4.680000e+002, 5.295010e+004
4.690000e+002, 5.325800e+004
4.700000e+002, 5.285100e+004
4.710000e+002, 5.207600e+004
4.720000e+002, 5.178200e+004
4.730000e+002, 5.115100e+004
4.740000e+002, 5.107500e+004
4.750000e+002, 5.074200e+004
4.760000e+002, 5.086000e+004
4.770000e+002, 5.042100e+004
4.780000e+002, 5.029900e+004
4.790000e+002, 5.008100e+004
4.800000e+002, 4.926500e+004
4.810000e+002, 4.894700e+004
4.820000e+002, 4.915200e+004
4.830000e+002, 4.863900e+004
4.840000e+002, 4.826500e+004
4.850000e+002, 4.827100e+004
4.860000e+002, 4.790100e+004
4.870000e+002, 4.762700e+004
4.880000e+002, 4.742200e+004
4.890000e+002, 4.653400e+004
4.900000e+002, 4.686700e+004
4.910000e+002, 4.690800e+004
4.920000e+002, 4.604800e+004
4.930000e+002, 4.605300e+004
4.940000e+002, 4.570100e+004
4.950000e+002, 4.567800e+004
4.960000e+002, 4.579700e+004
4.970000e+002, 4.498000e+004
4.980000e+002, 4.452300e+004
4.990000e+002, 4.462910e+004
5.000000e+002, 4.430400e+004
5.010000e+002, 4.421200e+004
5.020000e+002, 4.390600e+004
5.030000e+002, 4.353500e+004
5.040000e+002, 4.348800e+004
5.050000e+002, 4.302600e+004
5.060000e+002, 4.323000e+004
5.070000e+002, 4.221600e+004
5.080000e+002, 4.247800e+004
5.090000e+002, 4.257100e+004
5.100000e+002, 4.184400e+004
5.110000e+002, 4.135500e+004
5.120000e+002, 4.138900e+004
5.130000e+002, 4.128400e+004
5.140000e+002, 4.105800e+004
5.150000e+002, 4.093800e+004
5.160000e+002, 4.068600e+004
5.170000e+002, 4.017800e+004
5.180000e+002, 4.006300e+004
5.190000e+002, 3.984300e+004
5.200000e+002, 3.970200e+004
5.210000e+002, 3.930400e+004
5.220000e+002, 3.936800e+004
5.230000e+002, 3.901300e+004
5.240000e+002, 3.913700e+004
5.250000e+002, 3.860000e+004
5.260000e+002, 3.871200e+004
5.270000e+002, 3.831800e+004
5.280000e+002, 3.802200e+004
5.290000e+002, 3.865700e+004
5.300000e+002, 3.802500e+004
5.310000e+002, 3.914800e+004
5.320000e+002, 4.340700e+004
5.330000e+002, 5.342800e+004
5.340000e+002, 5.599200e+004
5.350000e+002, 4.888500e+004
5.360000e+002, 4.319300e+004
5.370000e+002, 4.250900e+004
5.380000e+002, 4.317300e+004
5.390000e+002, 4.461400e+004
5.400000e+002, 4.579100e+004
5.410000e+002, 4.666300e+004
5.420000e+002, 4.760100e+004
5.430000e+002, 4.959100e+004
5.440000e+002, 5.244800e+004
5.450000e+002, 5.517800e+004
5.460000e+002, 5.466000e+004
5.470000e+002, 5.216000e+004
5.480000e+002, 4.907100e+004
5.490000e+002, 4.656900e+004
5.500000e+002, 4.577900e+004
5.510000e+002, 4.555300e+004
5.520000e+002, 4.602500e+004
5.530000e+002, 4.518800e+004
5.540000e+002, 4.375900e+004
5.550000e+002, 4.254100e+004
5.560000e+002, 4.246700e+004
5.570000e+002, 4.206900e+004
5.580000e+002, 4.211600e+004
5.590000e+002, 4.265700e+004
5.600000e+002, 4.226500e+004
5.610000e+002, 4.252700e+004
5.620000e+002, 4.267200e+004
5.630000e+002, 4.335600e+004
5.640000e+002, 4.388900e+004
5.650000e+002, 4.373600e+004
5.660000e+002, 4.375900e+004
5.670000e+002, 4.393700e+004
5.680000e+002, 4.360200e+004
5.690000e+002, 4.342100e+004
5.700000e+002, 4.311310e+004
5.710000e+002, 4.260100e+004
5.720000e+002, 4.245000e+004
5.730000e+002, 4.242800e+004
5.740000e+002, 4.192800e+004
5.750000e+002, 4.182700e+004
5.760000e+002, 4.168200e+004
5.770000e+002, 4.169200e+004
5.780000e+002, 4.149700e+004
5.790000e+002, 4.117800e+004
5.800000e+002, 4.158000e+004
5.810000e+002, 4.123400e+004
5.820000e+002, 4.105700e+004
5.830000e+002, 4.052000e+004
5.840000e+002, 4.037400e+004
5.850000e+002, 4.009500e+004
5.860000e+002, 3.954700e+004
5.870000e+002, 3.858700e+004
5.880000e+002, 3.893600e+004
5.890000e+002, 3.808400e+004
5.900000e+002, 3.805600e+004
5.910000e+002, 3.773500e+004
5.920000e+002, 3.779200e+004
5.930000e+002, 3.748700e+004
5.940000e+002, 3.745200e+004
5.950000e+002, 3.729900e+004
5.960000e+002, 3.720300e+004
5.970000e+002, 3.730800e+004
5.980000e+002, 3.727900e+004
5.990000e+002, 3.706800e+004
6.000000e+002, 3.670300e+004
6.010000e+002, 3.634000e+004
6.020000e+002, 3.588600e+004
6.030000e+002, 3.639500e+004
6.040000e+002, 3.576400e+004
6.050000e+002, 3.588700e+004
6.060000e+002, 3.592900e+004
6.070000e+002, 3.567800e+004
6.080000e+002, 3.551700e+004
6.090000e+002, 3.553100e+004
6.100000e+002, 3.524700e+004
6.110000e+002, 3.522800e+004
6.120000e+002, 3.507100e+004
6.130000e+002, 3.525000e+004
6.140000e+002, 3.483100e+004
6.150000e+002, 3.437400e+004
6.160000e+002, 3.434100e+004
6.170000e+002, 3.439900e+004
6.180000e+002, 3.426600e+004
6.190000e+002, 3.422500e+004
6.200000e+002, 3.376900e+004
6.210000e+002, 3.365400e+004
6.220000e+002, 3.367200e+004
6.230000e+002, 3.328700e+004
6.240000e+002, 3.357000e+004
6.250000e+002, 3.332500e+004
6.260000e+002, 3.342800e+004
6.270000e+002, 3.307500e+004
6.280000e+002, 3.291900e+004
6.290000e+002, 3.266000e+004
6.300000e+002, 3.255400e+004
6.310000e+002, 3.261600e+004
6.320000e+002, 3.214200e+004
6.330000e+002, 3.253300e+004
6.340000e+002, 3.214000e+004
6.350000e+002, 3.219600e+004
6.360000e+002, 3.184400e+004
6.370000e+002, 3.186700e+004
6.380000e+002, 3.180200e+004
6.390000e+002, 3.144800e+004
6.400000e+002, 3.179700e+004
6.410000e+002, 3.087600e+004
6.420000e+002, 3.069500e+004
6.430000e+002, 3.083200e+004
6.440000e+002, 3.058800e+004
6.450000e+002, 3.073600e+004
6.460000e+002, 3.016300e+004
6.470000e+002, 3.036200e+004
6.480000e+002, 2.996100e+004
6.490000e+002, 2.957700e+004
6.500000e+002, 3.001600e+004
6.510000e+002, 2.959600e+004
6.520000e+002, 2.919200e+004
6.530000e+002, 2.921300e+004
6.540000e+002, 2.887200e+004
6.550000e+002, 2.884700e+004
6.560000e+002, 2.883800e+004
6.570000e+002, 2.898000e+004
6.580000e+002, 2.867500e+004
6.590000e+002, 2.858900e+004
6.600000e+002, 2.830900e+004
6.610000e+002, 2.813900e+004
6.620000e+002, 2.782800e+004
6.630000e+002, 2.796400e+004
6.640000e+002, 2.803200e+004
6.650000e+002, 2.779800e+004
6.660000e+002, 2.725100e+004
6.670000e+002, 2.725000e+004
6.680000e+002, 2.714000e+004
6.690000e+002, 2.699600e+004
6.700000e+002, 2.702100e+004
6.710000e+002, 2.688900e+004
6.720000e+002, 2.645500e+004
6.730000e+002, 2.642900e+004
6.740000e+002, 2.641200e+004
6.750000e+002, 2.626600e+004
6.760000e+002, 2.633700e+004
6.770000e+002, 2.598000e+004
6.780000e+002, 2.582500e+004
6.790000e+002, 2.597600e+004
6.800000e+002, 2.592300e+004
6.810000e+002, 2.560000e+004
6.820000e+002, 2.539100e+004
6.830000e+002, 2.544700e+004
6.840000e+002, 2.540900e+004
6.850000e+002, 2.525900e+004
6.860000e+002, 2.540900e+004
6.870000e+002, 2.490900e+004
6.880000e+002, 2.517100e+004
6.890000e+002, 2.482200e+004
6.900000e+002, 2.481200e+004
6.910000e+002, 2.473700e+004
6.920000e+002, 2.459300e+004
6.930000e+002, 2.462600e+004
6.940000e+002, 2.423200e+004
6.950000e+002, 2.428300e+004
6.960000e+002, 2.411900e+004
6.970000e+002, 2.430500e+004
6.980000e+002, 2.407600e+004
6.990000e+002, 2.407200e+004
7.000000e+002, 2.379200e+004
7.010000e+002, 2.415900e+004
7.020000e+002, 2.359600e+004
7.030000e+002, 2.361400e+004
7.040000e+002, 2.335400e+004
7.050000e+002, 2.350900e+004
7.060000e+002, 2.345500e+004
7.070000e+002, 2.336700e+004
7.080000e+002, 2.322200e+004
7.090000e+002, 2.291600e+004
7.100000e+002, 2.314400e+004
7.110000e+002, 2.286800e+004
7.120000e+002, 2.304900e+004
7.130000e+002, 2.277700e+004
7.140000e+002, 2.293900e+004
7.150000e+002, 2.258800e+004
7.160000e+002, 2.233200e+004
7.170000e+002, 2.253400e+004
7.180000e+002, 2.203200e+004
7.190000e+002, 2.224200e+004
7.200000e+002, 2.215100e+004
7.210000e+002, 2.207400e+004
7.220000e+002, 2.184900e+004
7.230000e+002, 2.186300e+004
7.240000e+002, 2.190300e+004
7.250000e+002, 2.170400e+004
7.260000e+002, 2.160900e+004
7.270000e+002, 2.137000e+004
7.280000e+002, 2.133300e+004
7.290000e+002, 2.116900e+004
7.300000e+002, 2.102300e+004
7.310000e+002, 2.112700e+004
7.320000e+002, 2.117400e+004
7.330000e+002, 2.106700e+004
7.340000e+002, 2.083500e+004
7.350000e+002, 2.066200e+004
7.360000e+002, 2.084400e+004
7.370000e+002, 2.045900e+004
7.380000e+002, 2.030800e+004
7.390000e+002, 2.014900e+004
7.400000e+002, 2.046000e+004
7.410000e+002, 2.000900e+004
7.420000e+002, 2.016900e+004
7.430000e+002, 1.983300e+004
7.440000e+002, 1.994100e+004
7.450000e+002, 1.969100e+004
7.460000e+002, 1.946100e+004
7.470000e+002, 1.956100e+004
7.480000e+002, 1.944000e+004
7.490000e+002, 1.948600e+004
7.500000e+002, 1.943100e+004
7.510000e+002, 1.953500e+004
7.520000e+002, 1.905600e+004
7.530000e+002, 1.899000e+004
7.540000e+002, 1.899100e+004
7.550000e+002, 1.911500e+004
7.560000e+002, 1.877800e+004
7.570000e+002, 1.892500e+004
7.580000e+002, 1.878500e+004
7.590000e+002, 1.877400e+004
7.600000e+002, 1.823500e+004
7.610000e+002, 1.861900e+004
7.620000e+002, 1.843400e+004
7.630000e+002, 1.827400e+004
7.640000e+002, 1.829300e+004
7.650000e+002, 1.825200e+004
7.660000e+002, 1.790600e+004
7.670000e+002, 1.798600e+004
7.680000e+002, 1.795000e+004
7.690000e+002, 1.799800e+004
7.700000e+002, 1.775600e+004
7.710000e+002, 1.774200e+004
7.720000e+002, 1.737700e+004
7.730000e+002, 1.789300e+004
7.740000e+002, 1.778100e+004
7.750000e+002, 1.765400e+004
7.760000e+002, 1.792300e+004
7.770000e+002, 1.931100e+004
7.780000e+002, 2.439100e+004
7.790000e+002, 3.486500e+004
7.800000e+002, 4.613200e+004
7.810000e+002, 5.490800e+004
7.820000e+002, 4.789300e+004
7.830000e+002, 3.670500e+004
7.840000e+002, 2.879400e+004
7.850000e+002, 2.434100e+004
7.860000e+002, 2.239300e+004
7.870000e+002, 2.121700e+004
7.880000e+002, 2.065300e+004
7.890000e+002, 2.056400e+004
7.900000e+002, 2.063900e+004
7.910000e+002, 2.061800e+004
7.920000e+002, 2.130000e+004
7.930000e+002, 2.317400e+004
7.940000e+002, 2.916800e+004
7.950000e+002, 3.664900e+004
7.960000e+002, 3.586600e+004
7.970000e+002, 3.119700e+004
7.980000e+002, 2.688900e+004
7.990000e+002, 2.471800e+004
8.000000e+002, 2.366000e+004
8.010000e+002, 2.336700e+004
8.020000e+002, 2.310800e+004
8.030000e+002, 2.315800e+004
8.040000e+002, 2.348500e+004
8.050000e+002, 2.386100e+004
8.060000e+002, 2.388800e+004
8.070000e+002, 2.370400e+004
8.080000e+002, 2.401300e+004
8.090000e+002, 2.412600e+004
8.100000e+002, 2.417500e+004
8.110000e+002, 2.409200e+004
8.120000e+002, 2.447600e+004
8.130000e+002, 2.458800e+004
8.140000e+002, 2.460600e+004
8.150000e+002, 2.494000e+004
8.160000e+002, 2.481700e+004
8.170000e+002, 2.477200e+004
8.180000e+002, 2.513600e+004
8.190000e+002, 2.512700e+004
8.200000e+002, 2.499300e+004
8.210000e+002, 2.489400e+004
8.220000e+002, 2.475000e+004
8.230000e+002, 2.477500e+004
8.240000e+002, 2.483300e+004
8.250000e+002, 2.495400e+004
8.260000e+002, 2.476700e+004
8.270000e+002, 2.528900e+004
8.280000e+002, 2.533100e+004
8.290000e+002, 2.519100e+004
8.300000e+002, 2.523400e+004
8.310000e+002, 2.469400e+004
8.320000e+002, 2.459900e+004
8.330000e+002, 2.479000e+004
8.340000e+002, 2.469000e+004
8.350000e+002, 2.424000e+004
8.360000e+002, 2.427900e+004
8.370000e+002, 2.402400e+004
8.380000e+002, 2.408100e+004
8.390000e+002, 2.392700e+004
8.400000e+002, 2.371000e+004
8.410000e+002, 2.365500e+004
8.420000e+002, 2.371500e+004
8.430000e+002, 2.387200e+004
8.440000e+002, 2.347800e+004
8.450000e+002, 2.362700e+004
8.460000e+002, 2.337300e+004
8.470000e+002, 2.311300e+004
8.480000e+002, 2.305500e+004
8.490000e+002, 2.308400e+004
8.500000e+002, 2.308500e+004
8.510000e+002, 2.253800e+004
8.520000e+002, 2.256500e+004
8.530000e+002, 2.258300e+004
8.540000e+002, 2.261800e+004
8.550000e+002, 2.280000e+004
8.560000e+002, 2.249200e+004
8.570000e+002, 2.237600e+004
8.580000e+002, 2.235300e+004
8.590000e+002, 2.220600e+004
8.600000e+002, 2.222200e+004
8.610000e+002, 2.229900e+004
8.620000e+002, 2.215800e+004
8.630000e+002, 2.228600e+004
8.640000e+002, 2.208000e+004
8.650000e+002, 2.197100e+004
8.660000e+002, 2.193000e+004
8.670000e+002, 2.217000e+004
8.680000e+002, 2.206200e+004
8.690000e+002, 2.207400e+004
8.700000e+002, 2.201600e+004
8.710000e+002, 2.209600e+004
8.720000e+002, 2.192200e+004
8.730000e+002, 2.165300e+004
8.740000e+002, 2.167900e+004
8.750000e+002, 2.150300e+004
8.760000e+002, 2.182500e+004
8.770000e+002, 2.160400e+004
8.780000e+002, 2.167200e+004
8.790000e+002, 2.148900e+004
8.800000e+002, 2.130600e+004
8.810000e+002, 2.156000e+004
8.820000e+002, 2.146700e+004
8.830000e+002, 2.133300e+004
8.840000e+002, 2.132800e+004
8.850000e+002, 2.089300e+004
8.860000e+002, 2.108200e+004
8.870000e+002, 2.113100e+004
8.880000e+002, 2.077200e+004
8.890000e+002, 2.091100e+004
8.900000e+002, 2.120000e+004
8.910000e+002, 2.110300e+004
8.920000e+002, 2.093000e+004
8.930000e+002, 2.058900e+004
8.940000e+002, 2.067000e+004
8.950000e+002, 2.050300e+004
8.960000e+002, 2.053000e+004
8.970000e+002, 2.028800e+004
8.980000e+002, 2.048300e+004
8.990000e+002, 2.016500e+004
9.000000e+002, 2.007700e+004
9.010000e+002, 2.031900e+004
9.020000e+002, 2.005400e+004
9.030000e+002, 2.018500e+004
9.040000e+002, 1.980100e+004
9.050000e+002, 1.993300e+004
9.060000e+002, 1.970600e+004
9.070000e+002, 1.965400e+004
9.080000e+002, 1.977200e+004
9.090000e+002, 1.989800e+004
9.100000e+002, 1.984500e+004
9.110000e+002, 1.963600e+004
9.120000e+002, 1.951800e+004
9.130000e+002, 1.972000e+004
9.140000e+002, 1.983100e+004
9.150000e+002, 1.976200e+004
9.160000e+002, 1.952100e+004
9.170000e+002, 1.935500e+004
9.180000e+002, 1.945400e+004
9.190000e+002, 1.937500e+004
9.200000e+002, 1.937600e+004
9.210000e+002, 1.965300e+004
9.220000e+002, 1.972000e+004
9.230000e+002, 1.967500e+004
9.240000e+002, 1.975600e+004
9.250000e+002, 1.990200e+004
9.260000e+002, 1.999700e+004
9.270000e+002, 1.963800e+004
9.280000e+002, 1.945500e+004
9.290000e+002, 1.956800e+004
9.300000e+002, 1.942000e+004
9.310000e+002, 1.913500e+004
9.320000e+002, 1.910000e+004
9.330000e+002, 1.897700e+004
9.340000e+002, 1.907600e+004
9.350000e+002, 1.888100e+004
9.360000e+002, 1.876700e+004
9.370000e+002, 1.894600e+004
9.380000e+002, 1.892100e+004
9.390000e+002, 1.874300e+004
9.400000e+002, 1.852400e+004
9.410000e+002, 1.898100e+004
9.420000e+002, 1.882900e+004
9.430000e+002, 1.884100e+004
9.440000e+002, 1.885200e+004
9.450000e+002, 1.889900e+004
9.460000e+002, 1.896300e+004
9.470000e+002, 1.874500e+004
9.480000e+002, 1.881300e+004
9.490000e+002, 1.873500e+004
9.500000e+002, 1.874600e+004
9.510000e+002, 1.856800e+004
9.520000e+002, 1.835300e+004
9.530000e+002, 1.865200e+004
9.540000e+002, 1.854700e+004
9.550000e+002, 1.835500e+004
9.560000e+002, 1.829900e+004
9.570000e+002, 1.851500e+004
9.580000e+002, 1.831500e+004
9.590000e+002, 1.830000e+004
9.600000e+002, 1.812600e+004
9.610000e+002, 1.810500e+004
9.620000e+002, 1.823200e+004
9.630000e+002, 1.806300e+004
9.640000e+002, 1.818500e+004
9.650000e+002, 1.775800e+004
9.660000e+002, 1.797700e+004
9.670000e+002, 1.789500e+004
9.680000e+002, 1.826700e+004
9.690000e+002, 1.780800e+004
9.700000e+002, 1.754000e+004
9.710000e+002, 1.778400e+004
9.720000e+002, 1.797200e+004
9.730000e+002, 1.751200e+004
9.740000e+002, 1.748000e+004
9.750000e+002, 1.766800e+004
9.760000e+002, 1.722200e+004
9.770000e+002, 1.747700e+004
9.780000e+002, 1.747700e+004
9.790000e+002, 1.735500e+004
9.800000e+002, 1.729000e+004
9.810000e+002, 1.729100e+004
9.820000e+002, 1.749200e+004
9.830000e+002, 1.731600e+004
9.840000e+002, 1.689900e+004
9.850000e+002, 1.698700e+004
9.860000e+002, 1.699100e+004
9.870000e+002, 1.691700e+004
9.880000e+002, 1.666600e+004
9.890000e+002, 1.686200e+004
9.900000e+002, 1.672100e+004
9.910000e+002, 1.679700e+004
9.920000e+002, 1.695200e+004
9.930000e+002, 1.669600e+004
9.940000e+002, 1.618000e+004
9.950000e+002, 1.641800e+004
9.960000e+002, 1.660500e+004
9.970000e+002, 1.609500e+004
9.980000e+002, 1.640000e+004
9.990000e+002, 1.639200e+004
1.000000e+003, 1.617700e+004
1.001000e+003, 1.597800e+004
1.002000e+003, 1.595100e+004
1.003000e+003, 1.600200e+004
1.004000e+003, 1.584600e+004
1.005000e+003, 1.585100e+004
1.006000e+003, 1.574900e+004
1.007000e+003, 1.588100e+004
1.008000e+003, 1.584000e+004
1.009000e+003, 1.573900e+004
1.010000e+003, 1.568200e+004
1.011000e+003, 1.544100e+004
1.012000e+003, 1.577400e+004
1.013000e+003, 1.578600e+004
1.014000e+003, 1.551500e+004
1.015000e+003, 1.554600e+004
1.016000e+003, 1.527300e+004
1.017000e+003, 1.552500e+004
1.018000e+003, 1.555000e+004
1.019000e+003, 1.532600e+004
1.020000e+003, 1.546400e+004
1.021000e+003, 1.517200e+004
1.022000e+003, 1.523000e+004
1.023000e+003, 1.528700e+004
1.024000e+003, 1.535900e+004
1.025000e+003, 1.497300e+004
1.026000e+003, 1.509400e+004
1.027000e+003, 1.537100e+004
1.028000e+003, 1.515000e+004
1.029000e+003, 1.510000e+004
1.030000e+003, 1.519500e+004
1.031000e+003, 1.496400e+004
1.032000e+003, 1.466500e+004
1.033000e+003, 1.466800e+004
1.034000e+003, 1.487500e+004
1.035000e+003, 1.478200e+004
1.036000e+003, 1.455600e+004
1.037000e+003, 1.472000e+004
1.038000e+003, 1.464400e+004
1.039000e+003, 1.439200e+004
1.040000e+003, 1.449700e+004
1.041000e+003, 1.453500e+004
1.042000e+003, 1.447300e+004
1.043000e+003, 1.409800e+004
1.044000e+003, 1.435200e+004
1.045000e+003, 1.418200e+004
1.046000e+003, 1.391600e+004
1.047000e+003, 1.411400e+004
1.048000e+003, 1.431800e+004
1.049000e+003, 1.413900e+004
1.050000e+003, 1.402100e+004
1.051000e+003, 1.415500e+004
1.052000e+003, 1.393400e+004
1.053000e+003, 1.387000e+004
1.054000e+003, 1.377200e+004
1.055000e+003, 1.370700e+004
1.056000e+003, 1.382400e+004
1.057000e+003, 1.372700e+004
1.058000e+003, 1.369500e+004
1.059000e+003, 1.356100e+004
1.060000e+003, 1.355300e+004
1.061000e+003, 1.336500e+004
1.062000e+003, 1.333700e+004
1.063000e+003, 1.345500e+004
1.064000e+003, 1.346100e+004
1.065000e+003, 1.330700e+004
1.066000e+003, 1.333100e+004
1.067000e+003, 1.342700e+004
1.068000e+003, 1.326800e+004
1.069000e+003, 1.324500e+004
1.070000e+003, 1.332200e+004
1.071000e+003, 1.327100e+004
1.072000e+003, 1.323200e+004
1.073000e+003, 1.294100e+004
1.074000e+003, 1.309000e+004
1.075000e+003, 1.320300e+004
1.076000e+003, 1.294500e+004
1.077000e+003, 1.307800e+004
1.078000e+003, 1.293400e+004
1.079000e+003, 1.290900e+004
1.080000e+003, 1.271000e+004
1.081000e+003, 1.298900e+004
1.082000e+003, 1.287100e+004
1.083000e+003, 1.281800e+004
1.084000e+003, 1.282800e+004
1.085000e+003, 1.256300e+004
1.086000e+003, 1.264900e+004
1.087000e+003, 1.263000e+004
1.088000e+003, 1.266300e+004
1.089000e+003, 1.262400e+004
1.090000e+003, 1.265400e+004
1.091000e+003, 1.259600e+004
1.092000e+003, 1.254900e+004
1.093000e+003, 1.260300e+004
1.094000e+003, 1.230200e+004
1.095000e+003, 1.223700e+004
1.096000e+003, 1.236400e+004
1.097000e+003, 1.233000e+004
1.098000e+003, 1.227700e+004
1.099000e+003, 1.219300e+004
1.100000e+003, 1.228100e+004
1.101000e+003, 1.230100e+004
1.102000e+003, 1.228700e+004
1.103000e+003, 1.199900e+004
1.104000e+003, 1.194400e+004
1.105000e+003, 1.221000e+004
1.106000e+003, 1.203300e+004
1.107000e+003, 1.205400e+004
1.108000e+003, 1.180400e+004
1.109000e+003, 1.207400e+004
1.110000e+003, 1.200200e+004
1.111000e+003, 1.176400e+004
1.112000e+003, 1.202000e+004
1.113000e+003, 1.174300e+004
1.114000e+003, 1.177700e+004
1.115000e+003, 1.166500e+004
1.116000e+003, 1.165500e+004
1.117000e+003, 1.161400e+004
1.118000e+003, 1.178300e+004
1.119000e+003, 1.152200e+004
1.120000e+003, 1.177500e+004
1.121000e+003, 1.165500e+004
1.122000e+003, 1.144800e+004
1.123000e+003, 1.143800e+004
1.124000e+003, 1.122000e+004
1.125000e+003, 1.145300e+004
1.126000e+003, 1.137900e+004
1.127000e+003, 1.116600e+004
1.128000e+003, 1.105900e+004
1.129000e+003, 1.118500e+004
1.130000e+003, 1.124900e+004
1.131000e+003, 1.117000e+004
1.132000e+003, 1.127300e+004
1.133000e+003, 1.112500e+004
1.134000e+003, 1.102200e+004
1.135000e+003, 1.111900e+004
1.136000e+003, 1.093400e+004
1.137000e+003, 1.092100e+004
1.138000e+003, 1.087300e+004
1.139000e+003, 1.068900e+004
1.140000e+003, 1.079600e+004
1.141000e+003, 1.081900e+004
1.142000e+003, 1.094700e+004
1.143000e+003, 1.094400e+004
1.144000e+003, 1.059500e+004
1.145000e+003, 1.075000e+004
1.146000e+003, 1.059600e+004
1.147000e+003, 1.057500e+004
1.148000e+003, 1.067100e+004
1.149000e+003, 1.066700e+004
1.150000e+003, 1.039500e+004
1.151000e+003, 1.059100e+004
1.152000e+003, 1.056600e+004
1.153000e+003, 1.041300e+004
1.154000e+003, 1.061100e+004
1.155000e+003, 1.044700e+004
1.156000e+003, 1.028900e+004
1.157000e+003, 1.037400e+004
1.158000e+003, 1.040900e+004
1.159000e+003, 1.035300e+004
1.160000e+003, 1.023100e+004
1.161000e+003, 1.018400e+004
1.162000e+003, 1.012600e+004
1.163000e+003, 1.008900e+004
1.164000e+003, 1.016500e+004
1.165000e+003, 1.016400e+004
1.166000e+003, 9.936000e+003
1.167000e+003, 1.008700e+004
1.168000e+003, 9.986000e+003
1.169000e+003, 9.980000e+003
1.170000e+003, 1.001200e+004
1.171000e+003, 9.945010e+003
1.172000e+003, 1.001700e+004
1.173000e+003, 9.934000e+003
1.174000e+003, 1.002500e+004
1.175000e+003, 9.922000e+003
1.176000e+003, 9.860000e+003
1.177000e+003, 9.766010e+003
1.178000e+003, 9.789000e+003
1.179000e+003, 9.937000e+003
1.180000e+003, 9.513000e+003
1.181000e+003, 9.624000e+003
1.182000e+003, 9.559000e+003
1.183000e+003, 9.574000e+003
1.184000e+003, 9.659010e+003
1.185000e+003, 9.709010e+003
1.186000e+003, 9.436000e+003
1.187000e+003, 9.514000e+003
1.188000e+003, 9.558000e+003
1.189000e+003, 9.285000e+003
1.190000e+003, 9.450010e+003
1.191000e+003, 9.444010e+003
1.192000e+003, 9.453000e+003
1.193000e+003, 9.375000e+003
1.194000e+003, 9.444010e+003
1.195000e+003, 9.518000e+003
1.196000e+003, 9.301010e+003
1.197000e+003, 9.395000e+003
1.198000e+003, 9.271000e+003
1.199000e+003, 9.370000e+003
1.200000e+003, 9.238000e+003
1.201000e+003, 8.903000e+003
1.202000e+003, 9.085000e+003
1.203000e+003, 9.290000e+003
1.204000e+003, 9.077000e+003
1.205000e+003, 8.889010e+003
1.206000e+003, 9.038000e+003
1.207000e+003, 8.993000e+003
1.208000e+003, 9.028010e+003
1.209000e+003, 8.980010e+003
1.210000e+003, 8.875000e+003
1.211000e+003, 8.852000e+003
1.212000e+003, 8.999000e+003
1.213000e+003, 8.666000e+003
1.214000e+003, 9.008000e+003
1.215000e+003, 8.680000e+003
1.216000e+003, 8.926000e+003
1.217000e+003, 8.712000e+003
1.218000e+003, 8.604000e+003
1.219000e+003, 8.724000e+003
1.220000e+003, 8.737000e+003
1.221000e+003, 8.810000e+003
1.222000e+003, 8.712000e+003
1.223000e+003, 8.679000e+003
1.224000e+003, 8.829000e+003
1.225000e+003, 8.681000e+003
1.226000e+003, 8.672000e+003
1.227000e+003, 8.634000e+003
1.228000e+003, 8.477000e+003
1.229000e+003, 8.505000e+003
1.230000e+003, 8.656000e+003
1.231000e+003, 8.570000e+003
1.232000e+003, 8.505000e+003
1.233000e+003, 8.443000e+003
1.234000e+003, 8.349000e+003
1.235000e+003, 8.394000e+003
1.236000e+003, 8.504000e+003
1.237000e+003, 8.398000e+003
1.238000e+003, 8.097000e+003
1.239000e+003, 8.378000e+003
1.240000e+003, 8.479010e+003
1.241000e+003, 8.278000e+003
1.242000e+003, 8.283000e+003
1.243000e+003, 8.298000e+003
1.244000e+003, 8.289000e+003
1.245000e+003, 8.133000e+003
1.246000e+003, 8.021000e+003
1.247000e+003, 8.068000e+003
1.248000e+003, 8.031000e+003
1.249000e+003, 8.044000e+003
1.250000e+003, 8.077000e+003
1.251000e+003, 7.986000e+003
1.252000e+003, 7.957010e+003
1.253000e+003, 7.917000e+003
1.254000e+003, 7.892000e+003
1.255000e+003, 7.862000e+003
1.256000e+003, 7.806010e+003
1.257000e+003, 7.953000e+003
1.258000e+003, 7.757000e+003
1.259000e+003, 7.916000e+003
1.260000e+003, 7.957010e+003
1.261000e+003, 7.811000e+003
1.262000e+003, 7.817000e+003
1.263000e+003, 7.807000e+003
1.264000e+003, 7.629010e+003
1.265000e+003, 7.673000e+003
1.266000e+003, 7.687000e+003
1.267000e+003, 7.838000e+003
1.268000e+003, 7.595000e+003
1.269000e+003, 7.559000e+003
1.270000e+003, 7.503000e+003
1.271000e+003, 7.797000e+003
1.272000e+003, 7.446000e+003
1.273000e+003, 7.557000e+003
1.274000e+003, 7.665000e+003
1.275000e+003, 7.548000e+003
1.276000e+003, 7.568000e+003
1.277000e+003, 7.434000e+003
1.278000e+003, 7.411000e+003
1.279000e+003, 7.330000e+003
1.280000e+003, 7.451000e+003
1.281000e+003, 7.522000e+003
1.282000e+003, 7.213000e+003
1.283000e+003, 7.528000e+003
1.284000e+003, 7.299000e+003
1.285000e+003, 7.378000e+003
1.286000e+003, 7.335000e+003
1.287000e+003, 7.332000e+003
1.288000e+003, 7.418000e+003
1.289000e+003, 7.330000e+003
1.290000e+003, 7.221000e+003
1.291000e+003, 7.124000e+003
1.292000e+003, 7.133000e+003
1.293000e+003, 7.253000e+003
1.294000e+003, 7.091000e+003
1.295000e+003, 7.115000e+003
1.296000e+003, 7.228000e+003
1.297000e+003, 7.131000e+003
1.298000e+003, 7.040000e+003
1.299000e+003, 6.975000e+003
1.300000e+003, 7.066000e+003
1.301000e+003, 7.033000e+003
1.302000e+003, 7.003000e+003
1.303000e+003, 6.981000e+003
1.304000e+003, 6.941000e+003
1.305000e+003, 6.904000e+003
1.306000e+003, 6.988000e+003
1.307000e+003, 6.875000e+003
1.308000e+003, 7.020000e+003
1.309000e+003, 7.026000e+003
1.310000e+003, 7.024000e+003
1.311000e+003, 6.950000e+003
1.312000e+003, 6.922000e+003
1.313000e+003, 6.823000e+003
1.314000e+003, 6.701000e+003
1.315000e+003, 6.649000e+003
1.316000e+003, 6.890000e+003
1.317000e+003, 6.862010e+003
1.318000e+003, 6.682000e+003
1.319000e+003, 6.669000e+003
1.320000e+003, 6.594000e+003
1.321000e+003, 6.635000e+003
1.322000e+003, 6.683000e+003
1.323000e+003, 6.700000e+003
1.324000e+003, 6.533000e+003
1.325000e+003, 6.604000e+003
1.326000e+003, 6.596000e+003
1.327000e+003, 6.657000e+003
1.328000e+003, 6.519000e+003
1.329000e+003, 6.659000e+003
1.330000e+003, 6.469000e+003
1.331000e+003, 6.445000e+003
1.332000e+003, 6.684000e+003
1.333000e+003, 6.403000e+003
1.334000e+003, 6.449000e+003
1.335000e+003, 6.385000e+003
1.336000e+003, 6.503000e+003
1.337000e+003, 6.315000e+003
1.338000e+003, 6.451000e+003
1.339000e+003, 6.371000e+003
1.340000e+003, 6.408000e+003
1.341000e+003, 6.393000e+003
1.342000e+003, 6.321000e+003
1.343000e+003, 6.256000e+003
1.344000e+003, 6.185000e+003
1.345000e+003, 6.170000e+003
1.346000e+003, 6.279000e+003
1.347000e+003, 6.195000e+003
1.348000e+003, 6.285000e+003
1.349000e+003, 6.271000e+003
1.350000e+003, 6.400000e+003
1.351000e+003, 6.037000e+003
1.352000e+003, 6.165000e+003
1.353000e+003, 6.148000e+003
1.354000e+003, 6.335000e+003
1.355000e+003, 6.000000e+003
1.356000e+003, 6.085000e+003
1.357000e+003, 5.934000e+003
1.358000e+003, 6.120000e+003
1.359000e+003, 6.079000e+003
1.360000e+003, 6.193000e+003
1.361000e+003, 6.072000e+003
1.362000e+003, 6.043000e+003
1.363000e+003, 6.038000e+003
1.364000e+003, 5.966010e+003
#1.365000e+003, 7.645920e-006
#ENDOFDATA   : End Of Data and File
