#FORMAT	     : EMSA/MAS Spectral Data File
#VERSION     : 1.0
#TITLE       : MnO2(0400-0900eV)
#DATE        : 
#TIME        : 
#OWNER       : 
#NPOINTS     : 1024
#NCOLUMNS    : 1
#XUNITS      : eV
#YUNITS      : 
#DATATYPE    : XY
#XPERCHAN    : 5.000000e-001
#OFFSET      : 3.925000e+002
#SPECTRUM    : Spectral Data Starts Here
3.925000e+002, 1.000000e-001
3.930000e+002, 1.000000e-001
3.935000e+002, 1.000000e-001
3.940000e+002, 1.000000e-001
3.945000e+002, 1.000000e-001
3.950000e+002, 1.000000e-001
3.955000e+002, 1.000000e-001
3.960000e+002, 1.000000e-001
3.965000e+002, 1.000000e-001
3.970000e+002, 1.000000e-001
3.975000e+002, 1.000000e-001
3.980000e+002, 1.000000e-001
3.985000e+002, 1.000000e-001
3.990000e+002, 1.000000e-001
3.995000e+002, 1.000000e-001
4.000000e+002, 1.000000e-001
4.005000e+002, 1.000000e-001
4.010000e+002, 1.000000e-001
4.015000e+002, 1.000000e-001
4.020000e+002, 1.000000e-001
4.025000e+002, 1.000000e-001
4.030000e+002, 1.000000e-001
4.035000e+002, 1.000000e-001
4.040000e+002, 1.081000e+003
4.045000e+002, 5.307000e+003
4.050000e+002, 1.700200e+004
4.055000e+002, 4.108900e+004
4.060000e+002, 4.448800e+004
4.065000e+002, 4.409200e+004
4.070000e+002, 4.398500e+004
4.075000e+002, 4.360400e+004
4.080000e+002, 4.360400e+004
4.085000e+002, 4.384700e+004
4.090000e+002, 4.334300e+004
4.095000e+002, 4.327600e+004
4.100000e+002, 4.328900e+004
4.105000e+002, 4.352000e+004
4.110000e+002, 4.315500e+004
4.115000e+002, 4.262000e+004
4.120000e+002, 4.239900e+004
4.125000e+002, 4.216700e+004
4.130000e+002, 4.215000e+004
4.135000e+002, 4.213000e+004
4.140000e+002, 4.187100e+004
4.145000e+002, 4.199700e+004
4.150000e+002, 4.172300e+004
4.155000e+002, 4.159600e+004
4.160000e+002, 4.178600e+004
4.165000e+002, 4.120700e+004
4.170000e+002, 4.083100e+004
4.175000e+002, 4.102300e+004
4.180000e+002, 4.065700e+004
4.185000e+002, 4.004300e+004
4.190000e+002, 4.020100e+004
4.195000e+002, 4.055100e+004
4.200000e+002, 4.054000e+004
4.205000e+002, 3.982400e+004
4.210000e+002, 3.983700e+004
4.215000e+002, 3.934800e+004
4.220000e+002, 3.969800e+004
4.225000e+002, 3.954600e+004
4.230000e+002, 3.930600e+004
4.235000e+002, 3.923600e+004
4.240000e+002, 3.900600e+004
4.245000e+002, 3.915300e+004
4.250000e+002, 3.846700e+004
4.255000e+002, 3.861800e+004
4.260000e+002, 3.857900e+004
4.265000e+002, 3.810900e+004
4.270000e+002, 3.809300e+004
4.275000e+002, 3.785700e+004
4.280000e+002, 3.784200e+004
4.285000e+002, 3.811100e+004
4.290000e+002, 3.771900e+004
4.295000e+002, 3.789600e+004
4.300000e+002, 3.766100e+004
4.305000e+002, 3.778400e+004
4.310000e+002, 3.766500e+004
4.315000e+002, 3.721800e+004
4.320000e+002, 3.730700e+004
4.325000e+002, 3.660200e+004
4.330000e+002, 3.681900e+004
4.335000e+002, 3.687800e+004
4.340000e+002, 3.677600e+004
4.345000e+002, 3.655100e+004
4.350000e+002, 3.665900e+004
4.355000e+002, 3.617800e+004
4.360000e+002, 3.622900e+004
4.365000e+002, 3.561500e+004
4.370000e+002, 3.605500e+004
4.375000e+002, 3.555200e+004
4.380000e+002, 3.544900e+004
4.385000e+002, 3.557300e+004
4.390000e+002, 3.522000e+004
4.395000e+002, 3.537100e+004
4.400000e+002, 3.514800e+004
4.405000e+002, 3.499300e+004
4.410000e+002, 3.477800e+004
4.415000e+002, 3.487700e+004
4.420000e+002, 3.452200e+004
4.425000e+002, 3.431700e+004
4.430000e+002, 3.453200e+004
4.435000e+002, 3.445100e+004
4.440000e+002, 3.422500e+004
4.445000e+002, 3.401700e+004
4.450000e+002, 3.395300e+004
4.455000e+002, 3.403500e+004
4.460000e+002, 3.376100e+004
4.465000e+002, 3.372400e+004
4.470000e+002, 3.341800e+004
4.475000e+002, 3.327600e+004
4.480000e+002, 3.332600e+004
4.485000e+002, 3.293200e+004
4.490000e+002, 3.313600e+004
4.495000e+002, 3.285100e+004
4.500000e+002, 3.268000e+004
4.505000e+002, 3.264800e+004
4.510000e+002, 3.267600e+004
4.515000e+002, 3.226500e+004
4.520000e+002, 3.225100e+004
4.525000e+002, 3.214000e+004
4.530000e+002, 3.212100e+004
4.535000e+002, 3.217800e+004
4.540000e+002, 3.189800e+004
4.545000e+002, 3.196200e+004
4.550000e+002, 3.181800e+004
4.555000e+002, 3.156900e+004
4.560000e+002, 3.120600e+004
4.565000e+002, 3.121000e+004
4.570000e+002, 3.118500e+004
4.575000e+002, 3.129600e+004
4.580000e+002, 3.118500e+004
4.585000e+002, 3.114700e+004
4.590000e+002, 3.113400e+004
4.595000e+002, 3.093200e+004
4.600000e+002, 3.074400e+004
4.605000e+002, 3.062500e+004
4.610000e+002, 3.056200e+004
4.615000e+002, 3.029900e+004
4.620000e+002, 3.045400e+004
4.625000e+002, 3.019200e+004
4.630000e+002, 3.007900e+004
4.635000e+002, 2.996600e+004
4.640000e+002, 3.005100e+004
4.645000e+002, 2.978500e+004
4.650000e+002, 2.981700e+004
4.655000e+002, 2.955400e+004
4.660000e+002, 2.952700e+004
4.665000e+002, 2.983000e+004
4.670000e+002, 2.950000e+004
4.675000e+002, 2.975200e+004
4.680000e+002, 2.948600e+004
4.685000e+002, 2.908400e+004
4.690000e+002, 2.910900e+004
4.695000e+002, 2.890800e+004
4.700000e+002, 2.889500e+004
4.705000e+002, 2.905000e+004
4.710000e+002, 2.882600e+004
4.715000e+002, 2.877100e+004
4.720000e+002, 2.868200e+004
4.725000e+002, 2.849500e+004
4.730000e+002, 2.817100e+004
4.735000e+002, 2.792100e+004
4.740000e+002, 2.798100e+004
4.745000e+002, 2.842000e+004
4.750000e+002, 2.792000e+004
4.755000e+002, 2.809300e+004
4.760000e+002, 2.817000e+004
4.765000e+002, 2.757400e+004
4.770000e+002, 2.751000e+004
4.775000e+002, 2.760000e+004
4.780000e+002, 2.725900e+004
4.785000e+002, 2.733400e+004
4.790000e+002, 2.753600e+004
4.795000e+002, 2.729400e+004
4.800000e+002, 2.728100e+004
4.805000e+002, 2.661200e+004
4.810000e+002, 2.704300e+004
4.815000e+002, 2.708200e+004
4.820000e+002, 2.691400e+004
4.825000e+002, 2.637000e+004
4.830000e+002, 2.651500e+004
4.835000e+002, 2.636500e+004
4.840000e+002, 2.641200e+004
4.845000e+002, 2.655600e+004
4.850000e+002, 2.615600e+004
4.855000e+002, 2.608100e+004
4.860000e+002, 2.577200e+004
4.865000e+002, 2.622300e+004
4.870000e+002, 2.610300e+004
4.875000e+002, 2.568600e+004
4.880000e+002, 2.566200e+004
4.885000e+002, 2.579900e+004
4.890000e+002, 2.553300e+004
4.895000e+002, 2.560900e+004
4.900000e+002, 2.528800e+004
4.905000e+002, 2.530600e+004
4.910000e+002, 2.521800e+004
4.915000e+002, 2.513100e+004
4.920000e+002, 2.504400e+004
4.925000e+002, 2.522700e+004
4.930000e+002, 2.513100e+004
4.935000e+002, 2.495100e+004
4.940000e+002, 2.500400e+004
4.945000e+002, 2.488000e+004
4.950000e+002, 2.469500e+004
4.955000e+002, 2.454300e+004
4.960000e+002, 2.452000e+004
4.965000e+002, 2.448700e+004
4.970000e+002, 2.435300e+004
4.975000e+002, 2.435600e+004
4.980000e+002, 2.418100e+004
4.985000e+002, 2.437800e+004
4.990000e+002, 2.445300e+004
4.995000e+002, 2.375200e+004
5.000000e+002, 2.383800e+004
5.005000e+002, 2.399600e+004
5.010000e+002, 2.384400e+004
5.015000e+002, 2.394600e+004
5.020000e+002, 2.367400e+004
5.025000e+002, 2.324700e+004
5.030000e+002, 2.370400e+004
5.035000e+002, 2.363300e+004
5.040000e+002, 2.362700e+004
5.045000e+002, 2.352500e+004
5.050000e+002, 2.346100e+004
5.055000e+002, 2.320100e+004
5.060000e+002, 2.256900e+004
5.065000e+002, 2.326300e+004
5.070000e+002, 2.276700e+004
5.075000e+002, 2.274700e+004
5.080000e+002, 2.300800e+004
5.085000e+002, 2.266700e+004
5.090000e+002, 2.269100e+004
5.095000e+002, 2.270300e+004
5.100000e+002, 2.265900e+004
5.105000e+002, 2.253800e+004
5.110000e+002, 2.272600e+004
5.115000e+002, 2.218300e+004
5.120000e+002, 2.231500e+004
5.125000e+002, 2.226000e+004
5.130000e+002, 2.190500e+004
5.135000e+002, 2.218900e+004
5.140000e+002, 2.199000e+004
5.145000e+002, 2.193400e+004
5.150000e+002, 2.182400e+004
5.155000e+002, 2.172400e+004
5.160000e+002, 2.166900e+004
5.165000e+002, 2.185700e+004
5.170000e+002, 2.165500e+004
5.175000e+002, 2.134200e+004
5.180000e+002, 2.157600e+004
5.185000e+002, 2.154000e+004
5.190000e+002, 2.146600e+004
5.195000e+002, 2.128100e+004
5.200000e+002, 2.110700e+004
5.205000e+002, 2.122500e+004
5.210000e+002, 2.119200e+004
5.215000e+002, 2.146700e+004
5.220000e+002, 2.121500e+004
5.225000e+002, 2.097200e+004
5.230000e+002, 2.136400e+004
5.235000e+002, 2.090500e+004
5.240000e+002, 2.076600e+004
5.245000e+002, 2.070900e+004
5.250000e+002, 2.045600e+004
5.255000e+002, 2.075500e+004
5.260000e+002, 2.073900e+004
5.265000e+002, 2.065400e+004
5.270000e+002, 2.062700e+004
5.275000e+002, 2.033900e+004
5.280000e+002, 2.027100e+004
5.285000e+002, 2.042700e+004
5.290000e+002, 2.037000e+004
5.295000e+002, 2.078500e+004
5.300000e+002, 2.193700e+004
5.305000e+002, 2.326900e+004
5.310000e+002, 2.571200e+004
5.315000e+002, 2.776400e+004
5.320000e+002, 2.885800e+004
5.325000e+002, 2.884600e+004
5.330000e+002, 2.793200e+004
5.335000e+002, 2.735000e+004
5.340000e+002, 2.654000e+004
5.345000e+002, 2.649000e+004
5.350000e+002, 2.636500e+004
5.355000e+002, 2.660200e+004
5.360000e+002, 2.570000e+004
5.365000e+002, 2.527500e+004
5.370000e+002, 2.521400e+004
5.375000e+002, 2.543100e+004
5.380000e+002, 2.554700e+004
5.385000e+002, 2.611100e+004
5.390000e+002, 2.652400e+004
5.395000e+002, 2.712600e+004
5.400000e+002, 2.759200e+004
5.405000e+002, 2.810600e+004
5.410000e+002, 2.882800e+004
5.415000e+002, 2.964100e+004
5.420000e+002, 3.010500e+004
5.425000e+002, 3.035800e+004
5.430000e+002, 3.022000e+004
5.435000e+002, 3.002300e+004
5.440000e+002, 2.957100e+004
5.445000e+002, 2.878700e+004
5.450000e+002, 2.793400e+004
5.455000e+002, 2.697900e+004
5.460000e+002, 2.636100e+004
5.465000e+002, 2.616500e+004
5.470000e+002, 2.567700e+004
5.475000e+002, 2.560300e+004
5.480000e+002, 2.575000e+004
5.485000e+002, 2.585000e+004
5.490000e+002, 2.560900e+004
5.495000e+002, 2.560300e+004
5.500000e+002, 2.540300e+004
5.505000e+002, 2.504500e+004
5.510000e+002, 2.504900e+004
5.515000e+002, 2.497700e+004
5.520000e+002, 2.485100e+004
5.525000e+002, 2.439300e+004
5.530000e+002, 2.438700e+004
5.535000e+002, 2.391700e+004
5.540000e+002, 2.409300e+004
5.545000e+002, 2.444700e+004
5.550000e+002, 2.423800e+004
5.555000e+002, 2.437600e+004
5.560000e+002, 2.439600e+004
5.565000e+002, 2.416900e+004
5.570000e+002, 2.456900e+004
5.575000e+002, 2.489100e+004
5.580000e+002, 2.463800e+004
5.585000e+002, 2.469500e+004
5.590000e+002, 2.489300e+004
5.595000e+002, 2.479200e+004
5.600000e+002, 2.512400e+004
5.605000e+002, 2.503300e+004
5.610000e+002, 2.528100e+004
5.615000e+002, 2.535700e+004
5.620000e+002, 2.511200e+004
5.625000e+002, 2.555800e+004
5.630000e+002, 2.511400e+004
5.635000e+002, 2.516400e+004
5.640000e+002, 2.505400e+004
5.645000e+002, 2.506700e+004
5.650000e+002, 2.473900e+004
5.655000e+002, 2.493900e+004
5.660000e+002, 2.493400e+004
5.665000e+002, 2.468700e+004
5.670000e+002, 2.479500e+004
5.675000e+002, 2.463300e+004
5.680000e+002, 2.459800e+004
5.685000e+002, 2.444000e+004
5.690000e+002, 2.438600e+004
5.695000e+002, 2.446300e+004
5.700000e+002, 2.435300e+004
5.705000e+002, 2.441200e+004
5.710000e+002, 2.437200e+004
5.715000e+002, 2.433400e+004
5.720000e+002, 2.402400e+004
5.725000e+002, 2.426200e+004
5.730000e+002, 2.420100e+004
5.735000e+002, 2.401500e+004
5.740000e+002, 2.412800e+004
5.745000e+002, 2.381600e+004
5.750000e+002, 2.395100e+004
5.755000e+002, 2.367600e+004
5.760000e+002, 2.380200e+004
5.765000e+002, 2.319000e+004
5.770000e+002, 2.347800e+004
5.775000e+002, 2.337300e+004
5.780000e+002, 2.338000e+004
5.785000e+002, 2.320000e+004
5.790000e+002, 2.315800e+004
5.795000e+002, 2.321000e+004
5.800000e+002, 2.318000e+004
5.805000e+002, 2.316500e+004
5.810000e+002, 2.279000e+004
5.815000e+002, 2.300300e+004
5.820000e+002, 2.268400e+004
5.825000e+002, 2.255700e+004
5.830000e+002, 2.280800e+004
5.835000e+002, 2.238100e+004
5.840000e+002, 2.230700e+004
5.845000e+002, 2.260900e+004
5.850000e+002, 2.216900e+004
5.855000e+002, 2.210400e+004
5.860000e+002, 2.203200e+004
5.865000e+002, 2.183700e+004
5.870000e+002, 2.207600e+004
5.875000e+002, 2.190900e+004
5.880000e+002, 2.165600e+004
5.885000e+002, 2.201600e+004
5.890000e+002, 2.175800e+004
5.895000e+002, 2.179900e+004
5.900000e+002, 2.189600e+004
5.905000e+002, 2.178600e+004
5.910000e+002, 2.166900e+004
5.915000e+002, 2.168000e+004
5.920000e+002, 2.165100e+004
5.925000e+002, 2.129100e+004
5.930000e+002, 2.158500e+004
5.935000e+002, 2.157300e+004
5.940000e+002, 2.148000e+004
5.945000e+002, 2.171500e+004
5.950000e+002, 2.130300e+004
5.955000e+002, 2.154300e+004
5.960000e+002, 2.123400e+004
5.965000e+002, 2.159500e+004
5.970000e+002, 2.142300e+004
5.975000e+002, 2.128000e+004
5.980000e+002, 2.142800e+004
5.985000e+002, 2.136800e+004
5.990000e+002, 2.100400e+004
5.995000e+002, 2.120900e+004
6.000000e+002, 2.111100e+004
6.005000e+002, 2.103100e+004
6.010000e+002, 2.116400e+004
6.015000e+002, 2.098900e+004
6.020000e+002, 2.079800e+004
6.025000e+002, 2.070400e+004
6.030000e+002, 2.058700e+004
6.035000e+002, 2.079600e+004
6.040000e+002, 2.068300e+004
6.045000e+002, 2.066500e+004
6.050000e+002, 2.065400e+004
6.055000e+002, 2.042000e+004
6.060000e+002, 2.060400e+004
6.065000e+002, 2.039300e+004
6.070000e+002, 2.039400e+004
6.075000e+002, 2.019600e+004
6.080000e+002, 2.029400e+004
6.085000e+002, 2.019300e+004
6.090000e+002, 2.022600e+004
6.095000e+002, 2.019200e+004
6.100000e+002, 1.994400e+004
6.105000e+002, 2.003200e+004
6.110000e+002, 2.002000e+004
6.115000e+002, 1.985200e+004
6.120000e+002, 2.010300e+004
6.125000e+002, 1.984900e+004
6.130000e+002, 1.985700e+004
6.135000e+002, 1.988500e+004
6.140000e+002, 1.988300e+004
6.145000e+002, 1.976100e+004
6.150000e+002, 1.986900e+004
6.155000e+002, 1.965000e+004
6.160000e+002, 1.973500e+004
6.165000e+002, 1.951400e+004
6.170000e+002, 1.970900e+004
6.175000e+002, 1.926300e+004
6.180000e+002, 1.977000e+004
6.185000e+002, 1.919700e+004
6.190000e+002, 1.942800e+004
6.195000e+002, 1.949100e+004
6.200000e+002, 1.946200e+004
6.205000e+002, 1.930000e+004
6.210000e+002, 1.918200e+004
6.215000e+002, 1.927800e+004
6.220000e+002, 1.909000e+004
6.225000e+002, 1.934400e+004
6.230000e+002, 1.915100e+004
6.235000e+002, 1.895800e+004
6.240000e+002, 1.907000e+004
6.245000e+002, 1.918400e+004
6.250000e+002, 1.885500e+004
6.255000e+002, 1.882400e+004
6.260000e+002, 1.904700e+004
6.265000e+002, 1.886900e+004
6.270000e+002, 1.888500e+004
6.275000e+002, 1.866800e+004
6.280000e+002, 1.866600e+004
6.285000e+002, 1.868000e+004
6.290000e+002, 1.861300e+004
6.295000e+002, 1.830700e+004
6.300000e+002, 1.839300e+004
6.305000e+002, 1.861400e+004
6.310000e+002, 1.832200e+004
6.315000e+002, 1.815500e+004
6.320000e+002, 1.812700e+004
6.325000e+002, 1.845300e+004
6.330000e+002, 1.841700e+004
6.335000e+002, 1.810200e+004
6.340000e+002, 1.804600e+004
6.345000e+002, 1.814700e+004
6.350000e+002, 1.805100e+004
6.355000e+002, 1.791700e+004
6.360000e+002, 1.811600e+004
6.365000e+002, 1.831000e+004
6.370000e+002, 1.808500e+004
6.375000e+002, 1.831700e+004
6.380000e+002, 1.844900e+004
6.385000e+002, 1.926100e+004
6.390000e+002, 2.046800e+004
6.395000e+002, 2.397100e+004
6.400000e+002, 2.986100e+004
6.405000e+002, 3.877600e+004
6.410000e+002, 4.684000e+004
6.415000e+002, 5.295600e+004
6.420000e+002, 5.567200e+004
6.425000e+002, 5.863400e+004
6.430000e+002, 5.619300e+004
6.435000e+002, 5.363400e+004
6.440000e+002, 5.009600e+004
6.445000e+002, 4.568700e+004
6.450000e+002, 4.042400e+004
6.455000e+002, 3.566200e+004
6.460000e+002, 3.207500e+004
6.465000e+002, 2.932400e+004
6.470000e+002, 2.720900e+004
6.475000e+002, 2.559800e+004
6.480000e+002, 2.464500e+004
6.485000e+002, 2.420600e+004
6.490000e+002, 2.378000e+004
6.495000e+002, 2.380800e+004
6.500000e+002, 2.466600e+004
6.505000e+002, 2.584900e+004
6.510000e+002, 2.806200e+004
6.515000e+002, 3.084300e+004
6.520000e+002, 3.360500e+004
6.525000e+002, 3.640500e+004
6.530000e+002, 3.863900e+004
6.535000e+002, 3.948600e+004
6.540000e+002, 3.939100e+004
6.545000e+002, 3.750500e+004
6.550000e+002, 3.517900e+004
6.555000e+002, 3.208100e+004
6.560000e+002, 2.990000e+004
6.565000e+002, 2.777300e+004
6.570000e+002, 2.638000e+004
6.575000e+002, 2.536300e+004
6.580000e+002, 2.490600e+004
6.585000e+002, 2.454900e+004
6.590000e+002, 2.444200e+004
6.595000e+002, 2.437000e+004
6.600000e+002, 2.415500e+004
6.605000e+002, 2.412000e+004
6.610000e+002, 2.454100e+004
6.615000e+002, 2.451400e+004
6.620000e+002, 2.482900e+004
6.625000e+002, 2.464100e+004
6.630000e+002, 2.507000e+004
6.635000e+002, 2.513700e+004
6.640000e+002, 2.523800e+004
6.645000e+002, 2.508800e+004
6.650000e+002, 2.522600e+004
6.655000e+002, 2.539100e+004
6.660000e+002, 2.534800e+004
6.665000e+002, 2.538600e+004
6.670000e+002, 2.532900e+004
6.675000e+002, 2.546800e+004
6.680000e+002, 2.534600e+004
6.685000e+002, 2.533300e+004
6.690000e+002, 2.524000e+004
6.695000e+002, 2.528900e+004
6.700000e+002, 2.533400e+004
6.705000e+002, 2.552300e+004
6.710000e+002, 2.553400e+004
6.715000e+002, 2.552200e+004
6.720000e+002, 2.555200e+004
6.725000e+002, 2.548000e+004
6.730000e+002, 2.556700e+004
6.735000e+002, 2.557300e+004
6.740000e+002, 2.595500e+004
6.745000e+002, 2.597100e+004
6.750000e+002, 2.605300e+004
6.755000e+002, 2.607900e+004
6.760000e+002, 2.619700e+004
6.765000e+002, 2.586600e+004
6.770000e+002, 2.602900e+004
6.775000e+002, 2.606500e+004
6.780000e+002, 2.595900e+004
6.785000e+002, 2.589400e+004
6.790000e+002, 2.587200e+004
6.795000e+002, 2.584900e+004
6.800000e+002, 2.594300e+004
6.805000e+002, 2.578400e+004
6.810000e+002, 2.605900e+004
6.815000e+002, 2.600800e+004
6.820000e+002, 2.590100e+004
6.825000e+002, 2.584600e+004
6.830000e+002, 2.609300e+004
6.835000e+002, 2.605600e+004
6.840000e+002, 2.575900e+004
6.845000e+002, 2.569800e+004
6.850000e+002, 2.552400e+004
6.855000e+002, 2.587800e+004
6.860000e+002, 2.569800e+004
6.865000e+002, 2.569300e+004
6.870000e+002, 2.521600e+004
6.875000e+002, 2.547900e+004
6.880000e+002, 2.544500e+004
6.885000e+002, 2.521500e+004
6.890000e+002, 2.504500e+004
6.895000e+002, 2.523000e+004
6.900000e+002, 2.528800e+004
6.905000e+002, 2.534200e+004
6.910000e+002, 2.488100e+004
6.915000e+002, 2.465700e+004
6.920000e+002, 2.494000e+004
6.925000e+002, 2.505700e+004
6.930000e+002, 2.484600e+004
6.935000e+002, 2.508400e+004
6.940000e+002, 2.480700e+004
6.945000e+002, 2.513700e+004
6.950000e+002, 2.491400e+004
6.955000e+002, 2.493500e+004
6.960000e+002, 2.505100e+004
6.965000e+002, 2.476500e+004
6.970000e+002, 2.492600e+004
6.975000e+002, 2.482600e+004
6.980000e+002, 2.450700e+004
6.985000e+002, 2.453700e+004
6.990000e+002, 2.462000e+004
6.995000e+002, 2.456500e+004
7.000000e+002, 2.447100e+004
7.005000e+002, 2.426900e+004
7.010000e+002, 2.409800e+004
7.015000e+002, 2.399700e+004
7.020000e+002, 2.388000e+004
7.025000e+002, 2.400800e+004
7.030000e+002, 2.414600e+004
7.035000e+002, 2.408400e+004
7.040000e+002, 2.410800e+004
7.045000e+002, 2.387400e+004
7.050000e+002, 2.390900e+004
7.055000e+002, 2.390400e+004
7.060000e+002, 2.432300e+004
7.065000e+002, 2.382800e+004
7.070000e+002, 2.361100e+004
7.075000e+002, 2.378400e+004
7.080000e+002, 2.375000e+004
7.085000e+002, 2.359900e+004
7.090000e+002, 2.328500e+004
7.095000e+002, 2.348800e+004
7.100000e+002, 2.334000e+004
7.105000e+002, 2.342900e+004
7.110000e+002, 2.323900e+004
7.115000e+002, 2.311400e+004
7.120000e+002, 2.312200e+004
7.125000e+002, 2.297000e+004
7.130000e+002, 2.303200e+004
7.135000e+002, 2.302900e+004
7.140000e+002, 2.283500e+004
7.145000e+002, 2.274800e+004
7.150000e+002, 2.282700e+004
7.155000e+002, 2.282500e+004
7.160000e+002, 2.259100e+004
7.165000e+002, 2.274300e+004
7.170000e+002, 2.262400e+004
7.175000e+002, 2.245300e+004
7.180000e+002, 2.297500e+004
7.185000e+002, 2.242800e+004
7.190000e+002, 2.246700e+004
7.195000e+002, 2.243400e+004
7.200000e+002, 2.220400e+004
7.205000e+002, 2.240700e+004
7.210000e+002, 2.262100e+004
7.215000e+002, 2.223400e+004
7.220000e+002, 2.235800e+004
7.225000e+002, 2.231100e+004
7.230000e+002, 2.211900e+004
7.235000e+002, 2.232500e+004
7.240000e+002, 2.233800e+004
7.245000e+002, 2.194500e+004
7.250000e+002, 2.225700e+004
7.255000e+002, 2.219400e+004
7.260000e+002, 2.192300e+004
7.265000e+002, 2.230000e+004
7.270000e+002, 2.219500e+004
7.275000e+002, 2.201200e+004
7.280000e+002, 2.211500e+004
7.285000e+002, 2.210400e+004
7.290000e+002, 2.188100e+004
7.295000e+002, 2.185500e+004
7.300000e+002, 2.185400e+004
7.305000e+002, 2.173200e+004
7.310000e+002, 2.169300e+004
7.315000e+002, 2.178800e+004
7.320000e+002, 2.173100e+004
7.325000e+002, 2.188800e+004
7.330000e+002, 2.169000e+004
7.335000e+002, 2.175900e+004
7.340000e+002, 2.162700e+004
7.345000e+002, 2.148600e+004
7.350000e+002, 2.160700e+004
7.355000e+002, 2.168600e+004
7.360000e+002, 2.148500e+004
7.365000e+002, 2.170800e+004
7.370000e+002, 2.141300e+004
7.375000e+002, 2.128100e+004
7.380000e+002, 2.109800e+004
7.385000e+002, 2.127100e+004
7.390000e+002, 2.117100e+004
7.395000e+002, 2.114700e+004
7.400000e+002, 2.105700e+004
7.405000e+002, 2.129100e+004
7.410000e+002, 2.110700e+004
7.415000e+002, 2.138900e+004
7.420000e+002, 2.110300e+004
7.425000e+002, 2.108900e+004
7.430000e+002, 2.122100e+004
7.435000e+002, 2.117200e+004
7.440000e+002, 2.084500e+004
7.445000e+002, 2.078900e+004
7.450000e+002, 2.051100e+004
7.455000e+002, 2.087500e+004
7.460000e+002, 2.044200e+004
7.465000e+002, 2.060800e+004
7.470000e+002, 2.085900e+004
7.475000e+002, 2.055300e+004
7.480000e+002, 2.048100e+004
7.485000e+002, 2.058100e+004
7.490000e+002, 2.067900e+004
7.495000e+002, 2.029600e+004
7.500000e+002, 2.066500e+004
7.505000e+002, 2.068800e+004
7.510000e+002, 2.042900e+004
7.515000e+002, 2.036300e+004
7.520000e+002, 2.043100e+004
7.525000e+002, 2.020500e+004
7.530000e+002, 2.024900e+004
7.535000e+002, 2.013400e+004
7.540000e+002, 2.041500e+004
7.545000e+002, 2.028600e+004
7.550000e+002, 2.009300e+004
7.555000e+002, 2.011000e+004
7.560000e+002, 2.037100e+004
7.565000e+002, 1.981000e+004
7.570000e+002, 1.989800e+004
7.575000e+002, 1.999400e+004
7.580000e+002, 1.978300e+004
7.585000e+002, 2.016200e+004
7.590000e+002, 1.964200e+004
7.595000e+002, 2.002800e+004
7.600000e+002, 1.991900e+004
7.605000e+002, 1.995700e+004
7.610000e+002, 1.991100e+004
7.615000e+002, 1.978500e+004
7.620000e+002, 2.011200e+004
7.625000e+002, 1.986700e+004
7.630000e+002, 1.969100e+004
7.635000e+002, 1.951800e+004
7.640000e+002, 1.987400e+004
7.645000e+002, 1.973600e+004
7.650000e+002, 1.981600e+004
7.655000e+002, 2.013800e+004
7.660000e+002, 1.999300e+004
7.665000e+002, 2.030700e+004
7.670000e+002, 2.018900e+004
7.675000e+002, 2.015400e+004
7.680000e+002, 2.031200e+004
7.685000e+002, 2.054700e+004
7.690000e+002, 2.072400e+004
7.695000e+002, 2.024500e+004
7.700000e+002, 2.039900e+004
7.705000e+002, 2.020000e+004
7.710000e+002, 2.000500e+004
7.715000e+002, 2.002800e+004
7.720000e+002, 1.988700e+004
7.725000e+002, 1.979100e+004
7.730000e+002, 1.993100e+004
7.735000e+002, 1.943500e+004
7.740000e+002, 1.941800e+004
7.745000e+002, 1.932800e+004
7.750000e+002, 1.947200e+004
7.755000e+002, 1.947500e+004
7.760000e+002, 1.924700e+004
7.765000e+002, 1.922200e+004
7.770000e+002, 1.938400e+004
7.775000e+002, 1.903800e+004
7.780000e+002, 1.931600e+004
7.785000e+002, 1.899500e+004
7.790000e+002, 1.906200e+004
7.795000e+002, 1.908000e+004
7.800000e+002, 1.909400e+004
7.805000e+002, 1.896800e+004
7.810000e+002, 1.905700e+004
7.815000e+002, 1.903800e+004
7.820000e+002, 1.875300e+004
7.825000e+002, 1.890300e+004
7.830000e+002, 1.898700e+004
7.835000e+002, 1.869700e+004
7.840000e+002, 1.859000e+004
7.845000e+002, 1.867000e+004
7.850000e+002, 1.881100e+004
7.855000e+002, 1.856200e+004
7.860000e+002, 1.882000e+004
7.865000e+002, 1.876200e+004
7.870000e+002, 1.873800e+004
7.875000e+002, 1.869100e+004
7.880000e+002, 1.868200e+004
7.885000e+002, 1.869100e+004
7.890000e+002, 1.865800e+004
7.895000e+002, 1.863900e+004
7.900000e+002, 1.849900e+004
7.905000e+002, 1.846400e+004
7.910000e+002, 1.829100e+004
7.915000e+002, 1.830500e+004
7.920000e+002, 1.842300e+004
7.925000e+002, 1.828900e+004
7.930000e+002, 1.832500e+004
7.935000e+002, 1.831200e+004
7.940000e+002, 1.817700e+004
7.945000e+002, 1.836300e+004
7.950000e+002, 1.813000e+004
7.955000e+002, 1.810400e+004
7.960000e+002, 1.822800e+004
7.965000e+002, 1.815000e+004
7.970000e+002, 1.809100e+004
7.975000e+002, 1.795400e+004
7.980000e+002, 1.815200e+004
7.985000e+002, 1.776100e+004
7.990000e+002, 1.797800e+004
7.995000e+002, 1.784900e+004
8.000000e+002, 1.743500e+004
8.005000e+002, 1.768400e+004
8.010000e+002, 1.764600e+004
8.015000e+002, 1.770000e+004
8.020000e+002, 1.784700e+004
8.025000e+002, 1.782400e+004
8.030000e+002, 1.778800e+004
8.035000e+002, 1.794700e+004
8.040000e+002, 1.743300e+004
8.045000e+002, 1.777100e+004
8.050000e+002, 1.773400e+004
8.055000e+002, 1.766500e+004
8.060000e+002, 1.772200e+004
8.065000e+002, 1.752300e+004
8.070000e+002, 1.747900e+004
8.075000e+002, 1.724000e+004
8.080000e+002, 1.727800e+004
8.085000e+002, 1.733800e+004
8.090000e+002, 1.735100e+004
8.095000e+002, 1.742700e+004
8.100000e+002, 1.748100e+004
8.105000e+002, 1.718000e+004
8.110000e+002, 1.738200e+004
8.115000e+002, 1.712300e+004
8.120000e+002, 1.724800e+004
8.125000e+002, 1.700300e+004
8.130000e+002, 1.693700e+004
8.135000e+002, 1.722600e+004
8.140000e+002, 1.699600e+004
8.145000e+002, 1.708600e+004
8.150000e+002, 1.716500e+004
8.155000e+002, 1.703700e+004
8.160000e+002, 1.715500e+004
8.165000e+002, 1.705400e+004
8.170000e+002, 1.724700e+004
8.175000e+002, 1.685100e+004
8.180000e+002, 1.668700e+004
8.185000e+002, 1.659300e+004
8.190000e+002, 1.695100e+004
8.195000e+002, 1.663400e+004
8.200000e+002, 1.691500e+004
8.205000e+002, 1.677600e+004
8.210000e+002, 1.663800e+004
8.215000e+002, 1.675500e+004
8.220000e+002, 1.649300e+004
8.225000e+002, 1.655100e+004
8.230000e+002, 1.644400e+004
8.235000e+002, 1.663500e+004
8.240000e+002, 1.665900e+004
8.245000e+002, 1.666000e+004
8.250000e+002, 1.651900e+004
8.255000e+002, 1.642200e+004
8.260000e+002, 1.622300e+004
8.265000e+002, 1.657000e+004
8.270000e+002, 1.632100e+004
8.275000e+002, 1.618300e+004
8.280000e+002, 1.632100e+004
8.285000e+002, 1.623100e+004
8.290000e+002, 1.620600e+004
8.295000e+002, 1.653800e+004
8.300000e+002, 1.618900e+004
8.305000e+002, 1.611100e+004
8.310000e+002, 1.609500e+004
8.315000e+002, 1.611900e+004
8.320000e+002, 1.607800e+004
8.325000e+002, 1.586800e+004
8.330000e+002, 1.595800e+004
8.335000e+002, 1.584000e+004
8.340000e+002, 1.607000e+004
8.345000e+002, 1.577800e+004
8.350000e+002, 1.588800e+004
8.355000e+002, 1.601300e+004
8.360000e+002, 1.585100e+004
8.365000e+002, 1.567000e+004
8.370000e+002, 1.567200e+004
8.375000e+002, 1.595200e+004
8.380000e+002, 1.536200e+004
8.385000e+002, 1.554300e+004
8.390000e+002, 1.554800e+004
8.395000e+002, 1.566300e+004
8.400000e+002, 1.546200e+004
8.405000e+002, 1.563300e+004
8.410000e+002, 1.559200e+004
8.415000e+002, 1.541200e+004
8.420000e+002, 1.584000e+004
8.425000e+002, 1.536900e+004
8.430000e+002, 1.543100e+004
8.435000e+002, 1.538800e+004
8.440000e+002, 1.531500e+004
8.445000e+002, 1.547200e+004
8.450000e+002, 1.551800e+004
8.455000e+002, 1.513700e+004
8.460000e+002, 1.504500e+004
8.465000e+002, 1.518300e+004
8.470000e+002, 1.524900e+004
8.475000e+002, 1.535100e+004
8.480000e+002, 1.525000e+004
8.485000e+002, 1.492200e+004
8.490000e+002, 1.505400e+004
8.495000e+002, 1.490500e+004
8.500000e+002, 1.495000e+004
8.505000e+002, 1.500300e+004
8.510000e+002, 1.494000e+004
8.515000e+002, 1.478800e+004
8.520000e+002, 1.506900e+004
8.525000e+002, 1.488800e+004
8.530000e+002, 1.477100e+004
8.535000e+002, 1.474700e+004
8.540000e+002, 1.479300e+004
8.545000e+002, 1.479200e+004
8.550000e+002, 1.468600e+004
8.555000e+002, 1.464800e+004
8.560000e+002, 1.467900e+004
8.565000e+002, 1.452400e+004
8.570000e+002, 1.457800e+004
8.575000e+002, 1.472300e+004
8.580000e+002, 1.444900e+004
8.585000e+002, 1.434600e+004
8.590000e+002, 1.463600e+004
8.595000e+002, 1.450100e+004
8.600000e+002, 1.460600e+004
8.605000e+002, 1.439700e+004
8.610000e+002, 1.431700e+004
8.615000e+002, 1.436500e+004
8.620000e+002, 1.446100e+004
8.625000e+002, 1.423400e+004
8.630000e+002, 1.441100e+004
8.635000e+002, 1.435600e+004
8.640000e+002, 1.412800e+004
8.645000e+002, 1.422600e+004
8.650000e+002, 1.401000e+004
8.655000e+002, 1.413300e+004
8.660000e+002, 1.403500e+004
8.665000e+002, 1.401400e+004
8.670000e+002, 1.394100e+004
8.675000e+002, 1.403100e+004
8.680000e+002, 1.413400e+004
8.685000e+002, 1.398800e+004
8.690000e+002, 1.401500e+004
8.695000e+002, 1.385400e+004
8.700000e+002, 1.389900e+004
8.705000e+002, 1.388500e+004
8.710000e+002, 1.392900e+004
8.715000e+002, 1.374200e+004
8.720000e+002, 1.373300e+004
8.725000e+002, 1.377300e+004
8.730000e+002, 1.370500e+004
8.735000e+002, 1.361100e+004
8.740000e+002, 1.371000e+004
8.745000e+002, 1.372800e+004
8.750000e+002, 1.371700e+004
8.755000e+002, 1.364400e+004
8.760000e+002, 1.353800e+004
8.765000e+002, 1.370200e+004
8.770000e+002, 1.349800e+004
8.775000e+002, 1.337900e+004
8.780000e+002, 1.354000e+004
8.785000e+002, 1.368300e+004
8.790000e+002, 1.350100e+004
8.795000e+002, 1.359600e+004
8.800000e+002, 1.360100e+004
8.805000e+002, 1.335300e+004
8.810000e+002, 1.339400e+004
8.815000e+002, 1.328500e+004
8.820000e+002, 1.323100e+004
8.825000e+002, 1.332200e+004
8.830000e+002, 1.319700e+004
8.835000e+002, 1.315100e+004
8.840000e+002, 1.310100e+004
8.845000e+002, 1.310700e+004
8.850000e+002, 1.331000e+004
8.855000e+002, 1.329000e+004
8.860000e+002, 1.312400e+004
8.865000e+002, 1.318200e+004
8.870000e+002, 1.297100e+004
8.875000e+002, 1.296700e+004
8.880000e+002, 1.283600e+004
8.885000e+002, 1.292900e+004
8.890000e+002, 1.283800e+004
8.895000e+002, 1.298000e+004
8.900000e+002, 1.277400e+004
8.905000e+002, 1.312100e+004
8.910000e+002, 1.273500e+004
8.915000e+002, 1.260500e+004
8.920000e+002, 1.288300e+004
8.925000e+002, 1.282200e+004
8.930000e+002, 1.288100e+004
8.935000e+002, 1.265100e+004
8.940000e+002, 1.282600e+004
8.945000e+002, 1.284600e+004
8.950000e+002, 1.268500e+004
8.955000e+002, 1.246600e+004
8.960000e+002, 1.247300e+004
8.965000e+002, 1.254400e+004
8.970000e+002, 1.269800e+004
8.975000e+002, 1.249700e+004
8.980000e+002, 1.260300e+004
8.985000e+002, 1.238300e+004
8.990000e+002, 1.242300e+004
8.995000e+002, 1.225000e+004
9.000000e+002, 1.232500e+004
9.005000e+002, 1.235500e+004
9.010000e+002, 1.231000e+004
9.015000e+002, 1.210300e+004
9.020000e+002, 1.243100e+004
9.025000e+002, 1.228200e+004
9.030000e+002, 1.224400e+004
9.035000e+002, 1.210600e+004
9.040000e+002, 1.000000e-001
#ENDOFDATA   : End Of Data and File