#FORMAT	     : EMSA/MAS Spectral Data File
#VERSION     : 1.0
#TITLE       : Sc2O3(0-0950eV)
#DATE        : 
#TIME        : 
#OWNER       : 
#NPOINTS     : 1024
#NCOLUMNS    : 1
#XUNITS      : eV
#YUNITS      : 
#DATATYPE    : XY
#XPERCHAN    : 1.000000e+000
#OFFSET      : -6.700000e+001
#SPECTRUM    : Spectral Data Starts Here
-6.700000e+001, 1.000000e-001
-6.600000e+001, 1.000000e-001
-6.500000e+001, 1.000000e-001
-6.400000e+001, 1.000000e-001
-6.300000e+001, 1.000000e-001
-6.200000e+001, 1.000000e-001
-6.100000e+001, 1.000000e-001
-6.000000e+001, 1.000000e-001
-5.900000e+001, 1.000000e-001
-5.800000e+001, 1.000000e-001
-5.700000e+001, 1.000000e-001
-5.600000e+001, 1.000000e-001
-5.500000e+001, 9.800000e+001
-5.400000e+001, 2.040000e+002
-5.300000e+001, 6.830000e+002
-5.200000e+001, 9.450000e+002
-5.100000e+001, 1.076000e+003
-5.000000e+001, 1.241000e+003
-4.900000e+001, 1.335000e+003
-4.800000e+001, 1.340000e+003
-4.700000e+001, 1.336000e+003
-4.600000e+001, 1.343000e+003
-4.500000e+001, 1.328000e+003
-4.400000e+001, 1.342000e+003
-4.300000e+001, 1.334000e+003
-4.200000e+001, 1.335000e+003
-4.100000e+001, 1.335000e+003
-4.000000e+001, 1.340000e+003
-3.900000e+001, 1.334000e+003
-3.800000e+001, 1.338000e+003
-3.700000e+001, 1.336000e+003
-3.600000e+001, 1.339000e+003
-3.500000e+001, 1.337000e+003
-3.400000e+001, 1.331000e+003
-3.300000e+001, 1.337000e+003
-3.200000e+001, 1.335000e+003
-3.100000e+001, 1.337000e+003
-3.000000e+001, 1.339000e+003
-2.900000e+001, 1.336000e+003
-2.800000e+001, 1.333000e+003
-2.700000e+001, 1.336000e+003
-2.600000e+001, 1.340000e+003
-2.500000e+001, 1.336000e+003
-2.400000e+001, 1.336000e+003
-2.300000e+001, 1.332000e+003
-2.200000e+001, 1.340000e+003
-2.100000e+001, 1.337000e+003
-2.000000e+001, 1.335000e+003
-1.900000e+001, 1.337000e+003
-1.800000e+001, 1.336000e+003
-1.700000e+001, 1.339000e+003
-1.600000e+001, 1.334000e+003
-1.500000e+001, 1.341000e+003
-1.400000e+001, 1.335000e+003
-1.300000e+001, 1.343000e+003
-1.200000e+001, 1.338000e+003
-1.100000e+001, 1.344000e+003
-1.000000e+001, 1.345000e+003
-9.000000e+000, 1.349000e+003
-8.000000e+000, 1.355000e+003
-7.000000e+000, 1.391000e+003
-6.000000e+000, 1.437000e+003
-5.000000e+000, 1.603000e+003
-4.000000e+000, 2.127000e+003
-3.000000e+000, 6.169000e+003
-2.000000e+000, 3.435500e+004
-1.000000e+000, 1.736050e+005
0.000000e+000, 6.406830e+005
1.000000e+000, 1.907310e+005
2.000000e+000, 4.447600e+004
3.000000e+000, 8.416000e+003
4.000000e+000, 4.941000e+003
5.000000e+000, 4.502000e+003
6.000000e+000, 4.671000e+003
7.000000e+000, 5.316000e+003
8.000000e+000, 5.653000e+003
9.000000e+000, 5.942000e+003
1.000000e+001, 6.424000e+003
1.100000e+001, 7.666000e+003
1.200000e+001, 9.339000e+003
1.300000e+001, 1.062200e+004
1.400000e+001, 1.042900e+004
1.500000e+001, 8.898000e+003
1.600000e+001, 7.729000e+003
1.700000e+001, 7.431000e+003
1.800000e+001, 7.263010e+003
1.900000e+001, 7.148000e+003
2.000000e+001, 7.340000e+003
2.100000e+001, 7.644000e+003
2.200000e+001, 7.714000e+003
2.300000e+001, 7.553000e+003
2.400000e+001, 7.312000e+003
2.500000e+001, 7.026000e+003
2.600000e+001, 6.726000e+003
2.700000e+001, 6.341010e+003
2.800000e+001, 6.009000e+003
2.900000e+001, 5.677000e+003
3.000000e+001, 5.494000e+003
3.100000e+001, 5.252000e+003
3.200000e+001, 5.013000e+003
3.300000e+001, 5.106000e+003
3.400000e+001, 5.367000e+003
3.500000e+001, 5.306000e+003
3.600000e+001, 5.193000e+003
3.700000e+001, 5.275000e+003
3.800000e+001, 5.588000e+003
3.900000e+001, 6.383000e+003
4.000000e+001, 7.373000e+003
4.100000e+001, 8.288000e+003
4.200000e+001, 8.810000e+003
4.300000e+001, 9.143000e+003
4.400000e+001, 8.973000e+003
4.500000e+001, 8.251000e+003
4.600000e+001, 7.697000e+003
4.700000e+001, 7.047000e+003
4.800000e+001, 6.450000e+003
4.900000e+001, 5.853000e+003
5.000000e+001, 5.349000e+003
5.100000e+001, 4.830000e+003
5.200000e+001, 4.476000e+003
5.300000e+001, 4.226000e+003
5.400000e+001, 4.101000e+003
5.500000e+001, 3.954000e+003
5.600000e+001, 3.812000e+003
5.700000e+001, 3.676000e+003
5.800000e+001, 3.569000e+003
5.900000e+001, 3.455000e+003
6.000000e+001, 3.364000e+003
6.100000e+001, 3.291000e+003
6.200000e+001, 3.222000e+003
6.300000e+001, 3.167000e+003
6.400000e+001, 3.108000e+003
6.500000e+001, 3.056000e+003
6.600000e+001, 3.010000e+003
6.700000e+001, 2.961000e+003
6.800000e+001, 2.917000e+003
6.900000e+001, 2.876000e+003
7.000000e+001, 2.828000e+003
7.100000e+001, 2.789000e+003
7.200000e+001, 2.744000e+003
7.300000e+001, 2.697000e+003
7.400000e+001, 2.657000e+003
7.500000e+001, 2.625000e+003
7.600000e+001, 2.582000e+003
7.700000e+001, 2.558000e+003
7.800000e+001, 2.529000e+003
7.900000e+001, 2.509000e+003
8.000000e+001, 2.485000e+003
8.100000e+001, 2.466000e+003
8.200000e+001, 2.456000e+003
8.300000e+001, 2.437000e+003
8.400000e+001, 2.422000e+003
8.500000e+001, 2.402000e+003
8.600000e+001, 2.381000e+003
8.700000e+001, 2.359000e+003
8.800000e+001, 2.328000e+003
8.900000e+001, 2.299000e+003
9.000000e+001, 2.270000e+003
9.100000e+001, 2.246000e+003
9.200000e+001, 2.214000e+003
9.300000e+001, 2.187000e+003
9.400000e+001, 2.166000e+003
9.500000e+001, 2.148000e+003
9.600000e+001, 2.121000e+003
9.700000e+001, 2.095000e+003
9.800000e+001, 2.076000e+003
9.900000e+001, 2.058000e+003
1.000000e+002, 2.026000e+003
1.010000e+002, 2.013000e+003
1.020000e+002, 1.996000e+003
1.030000e+002, 1.982000e+003
1.040000e+002, 1.956000e+003
1.050000e+002, 1.946000e+003
1.060000e+002, 1.926000e+003
1.070000e+002, 1.913000e+003
1.080000e+002, 1.904000e+003
1.090000e+002, 1.889000e+003
1.100000e+002, 1.874000e+003
1.110000e+002, 1.872000e+003
1.120000e+002, 1.859000e+003
1.130000e+002, 1.838000e+003
1.140000e+002, 1.833000e+003
1.150000e+002, 1.818000e+003
1.160000e+002, 1.811000e+003
1.170000e+002, 1.795000e+003
1.180000e+002, 1.792000e+003
1.190000e+002, 1.782000e+003
1.200000e+002, 1.766000e+003
1.210000e+002, 1.759000e+003
1.220000e+002, 1.751000e+003
1.230000e+002, 1.740000e+003
1.240000e+002, 1.739000e+003
1.250000e+002, 1.721000e+003
1.260000e+002, 1.720000e+003
1.270000e+002, 1.713000e+003
1.280000e+002, 1.702000e+003
1.290000e+002, 1.699000e+003
1.300000e+002, 1.691000e+003
1.310000e+002, 1.683000e+003
1.320000e+002, 1.676000e+003
1.330000e+002, 1.674000e+003
1.340000e+002, 1.661000e+003
1.350000e+002, 1.657000e+003
1.360000e+002, 1.651000e+003
1.370000e+002, 1.646000e+003
1.380000e+002, 1.635000e+003
1.390000e+002, 1.636000e+003
1.400000e+002, 1.624000e+003
1.410000e+002, 1.618000e+003
1.420000e+002, 1.618000e+003
1.430000e+002, 1.606000e+003
1.440000e+002, 1.605000e+003
1.450000e+002, 1.595000e+003
1.460000e+002, 1.594000e+003
1.470000e+002, 1.586000e+003
1.480000e+002, 1.584000e+003
1.490000e+002, 1.578000e+003
1.500000e+002, 1.573000e+003
1.510000e+002, 1.573000e+003
1.520000e+002, 1.564000e+003
1.530000e+002, 1.560000e+003
1.540000e+002, 1.558000e+003
1.550000e+002, 1.555000e+003
1.560000e+002, 1.545000e+003
1.570000e+002, 1.548000e+003
1.580000e+002, 1.538000e+003
1.590000e+002, 1.537000e+003
1.600000e+002, 1.534000e+003
1.610000e+002, 1.537000e+003
1.620000e+002, 1.526000e+003
1.630000e+002, 1.528000e+003
1.640000e+002, 1.525000e+003
1.650000e+002, 1.514000e+003
1.660000e+002, 1.518000e+003
1.670000e+002, 1.508000e+003
1.680000e+002, 1.510000e+003
1.690000e+002, 1.510000e+003
1.700000e+002, 1.502000e+003
1.710000e+002, 1.505000e+003
1.720000e+002, 1.492000e+003
1.730000e+002, 1.499000e+003
1.740000e+002, 1.495000e+003
1.750000e+002, 1.490000e+003
1.760000e+002, 1.488000e+003
1.770000e+002, 1.486000e+003
1.780000e+002, 1.485000e+003
1.790000e+002, 1.487000e+003
1.800000e+002, 1.475000e+003
1.810000e+002, 1.479000e+003
1.820000e+002, 1.474000e+003
1.830000e+002, 1.477000e+003
1.840000e+002, 1.473000e+003
1.850000e+002, 1.467000e+003
1.860000e+002, 1.466000e+003
1.870000e+002, 1.465000e+003
1.880000e+002, 1.463000e+003
1.890000e+002, 1.459000e+003
1.900000e+002, 4.096000e+003
1.910000e+002, 6.517000e+003
1.920000e+002, 9.680010e+003
1.930000e+002, 2.904600e+004
1.940000e+002, 5.213000e+004
1.950000e+002, 6.541700e+004
1.960000e+002, 7.519210e+004
1.970000e+002, 7.974200e+004
1.980000e+002, 8.031400e+004
1.990000e+002, 7.951300e+004
2.000000e+002, 7.813500e+004
2.010000e+002, 7.691700e+004
2.020000e+002, 7.676200e+004
2.030000e+002, 7.543200e+004
2.040000e+002, 7.437210e+004
2.050000e+002, 7.318400e+004
2.060000e+002, 7.204800e+004
2.070000e+002, 7.150800e+004
2.080000e+002, 7.063700e+004
2.090000e+002, 6.992390e+004
2.100000e+002, 6.823910e+004
2.110000e+002, 6.840900e+004
2.120000e+002, 6.628300e+004
2.130000e+002, 6.605200e+004
2.140000e+002, 6.591600e+004
2.150000e+002, 6.479800e+004
2.160000e+002, 6.370100e+004
2.170000e+002, 6.321800e+004
2.180000e+002, 6.216400e+004
2.190000e+002, 6.134400e+004
2.200000e+002, 6.122400e+004
2.210000e+002, 6.030010e+004
2.220000e+002, 5.951800e+004
2.230000e+002, 5.922410e+004
2.240000e+002, 5.902500e+004
2.250000e+002, 5.779200e+004
2.260000e+002, 5.771900e+004
2.270000e+002, 5.678400e+004
2.280000e+002, 5.622410e+004
2.290000e+002, 5.524100e+004
2.300000e+002, 5.480900e+004
2.310000e+002, 5.444200e+004
2.320000e+002, 5.340700e+004
2.330000e+002, 5.315400e+004
2.340000e+002, 5.240500e+004
2.350000e+002, 5.201500e+004
2.360000e+002, 5.166600e+004
2.370000e+002, 5.044900e+004
2.380000e+002, 5.028300e+004
2.390000e+002, 4.986700e+004
2.400000e+002, 4.930700e+004
2.410000e+002, 4.824000e+004
2.420000e+002, 4.798900e+004
2.430000e+002, 4.757600e+004
2.440000e+002, 4.713000e+004
2.450000e+002, 4.645200e+004
2.460000e+002, 4.592200e+004
2.470000e+002, 4.537400e+004
2.480000e+002, 4.576700e+004
2.490000e+002, 4.443700e+004
2.500000e+002, 4.413100e+004
2.510000e+002, 4.401900e+004
2.520000e+002, 4.308500e+004
2.530000e+002, 4.305600e+004
2.540000e+002, 4.219100e+004
2.550000e+002, 4.147400e+004
2.560000e+002, 4.183000e+004
2.570000e+002, 4.127700e+004
2.580000e+002, 4.071600e+004
2.590000e+002, 4.022700e+004
2.600000e+002, 3.991300e+004
2.610000e+002, 3.909500e+004
2.620000e+002, 3.907700e+004
2.630000e+002, 3.883300e+004
2.640000e+002, 3.856400e+004
2.650000e+002, 3.785600e+004
2.660000e+002, 3.772100e+004
2.670000e+002, 3.698900e+004
2.680000e+002, 3.692900e+004
2.690000e+002, 3.632800e+004
2.700000e+002, 3.627300e+004
2.710000e+002, 3.610800e+004
2.720000e+002, 3.553800e+004
2.730000e+002, 3.523700e+004
2.740000e+002, 3.449600e+004
2.750000e+002, 3.445500e+004
2.760000e+002, 3.425900e+004
2.770000e+002, 3.389700e+004
2.780000e+002, 3.354100e+004
2.790000e+002, 3.329600e+004
2.800000e+002, 3.315400e+004
2.810000e+002, 3.273100e+004
2.820000e+002, 3.232200e+004
2.830000e+002, 3.252700e+004
2.840000e+002, 3.172400e+004
2.850000e+002, 3.149000e+004
2.860000e+002, 3.173300e+004
2.870000e+002, 3.123300e+004
2.880000e+002, 3.136900e+004
2.890000e+002, 3.084100e+004
2.900000e+002, 3.052300e+004
2.910000e+002, 3.021600e+004
2.920000e+002, 2.983500e+004
2.930000e+002, 2.981900e+004
2.940000e+002, 2.950300e+004
2.950000e+002, 2.899900e+004
2.960000e+002, 2.932600e+004
2.970000e+002, 2.859700e+004
2.980000e+002, 2.840800e+004
2.990000e+002, 2.824700e+004
3.000000e+002, 2.823600e+004
3.010000e+002, 2.766200e+004
3.020000e+002, 2.763600e+004
3.030000e+002, 2.738100e+004
3.040000e+002, 2.690600e+004
3.050000e+002, 2.651500e+004
3.060000e+002, 2.692900e+004
3.070000e+002, 2.613800e+004
3.080000e+002, 2.649400e+004
3.090000e+002, 2.625300e+004
3.100000e+002, 2.574100e+004
3.110000e+002, 2.540300e+004
3.120000e+002, 2.490300e+004
3.130000e+002, 2.539600e+004
3.140000e+002, 2.494300e+004
3.150000e+002, 2.446800e+004
3.160000e+002, 2.429700e+004
3.170000e+002, 2.408600e+004
3.180000e+002, 2.409200e+004
3.190000e+002, 2.385300e+004
3.200000e+002, 2.354300e+004
3.210000e+002, 2.335400e+004
3.220000e+002, 2.326700e+004
3.230000e+002, 2.309000e+004
3.240000e+002, 2.258800e+004
3.250000e+002, 2.283600e+004
3.260000e+002, 2.248200e+004
3.270000e+002, 2.238400e+004
3.280000e+002, 2.218800e+004
3.290000e+002, 2.186300e+004
3.300000e+002, 2.150300e+004
3.310000e+002, 2.162400e+004
3.320000e+002, 2.135400e+004
3.330000e+002, 2.119000e+004
3.340000e+002, 2.125200e+004
3.350000e+002, 2.084100e+004
3.360000e+002, 2.092100e+004
3.370000e+002, 2.054500e+004
3.380000e+002, 2.081100e+004
3.390000e+002, 2.051000e+004
3.400000e+002, 2.028700e+004
3.410000e+002, 2.008700e+004
3.420000e+002, 2.017200e+004
3.430000e+002, 2.008100e+004
3.440000e+002, 1.977500e+004
3.450000e+002, 1.951800e+004
3.460000e+002, 1.928500e+004
3.470000e+002, 1.913200e+004
3.480000e+002, 1.907900e+004
3.490000e+002, 1.878800e+004
3.500000e+002, 1.897400e+004
3.510000e+002, 1.875700e+004
3.520000e+002, 1.869400e+004
3.530000e+002, 1.865100e+004
3.540000e+002, 1.841100e+004
3.550000e+002, 1.843800e+004
3.560000e+002, 1.793800e+004
3.570000e+002, 1.805300e+004
3.580000e+002, 1.792600e+004
3.590000e+002, 1.773600e+004
3.600000e+002, 1.771000e+004
3.610000e+002, 1.739800e+004
3.620000e+002, 1.764900e+004
3.630000e+002, 1.688000e+004
3.640000e+002, 1.718400e+004
3.650000e+002, 1.702200e+004
3.660000e+002, 1.710300e+004
3.670000e+002, 1.661800e+004
3.680000e+002, 1.658000e+004
3.690000e+002, 1.649500e+004
3.700000e+002, 1.664000e+004
3.710000e+002, 1.613500e+004
3.720000e+002, 1.611700e+004
3.730000e+002, 1.576600e+004
3.740000e+002, 1.602300e+004
3.750000e+002, 1.599700e+004
3.760000e+002, 1.591000e+004
3.770000e+002, 1.587200e+004
3.780000e+002, 1.547300e+004
3.790000e+002, 1.576500e+004
3.800000e+002, 1.560600e+004
3.810000e+002, 1.529300e+004
3.820000e+002, 1.507000e+004
3.830000e+002, 1.522000e+004
3.840000e+002, 1.502400e+004
3.850000e+002, 1.464600e+004
3.860000e+002, 1.468500e+004
3.870000e+002, 1.492100e+004
3.880000e+002, 1.447600e+004
3.890000e+002, 1.447700e+004
3.900000e+002, 1.425200e+004
3.910000e+002, 1.420100e+004
3.920000e+002, 1.442400e+004
3.930000e+002, 1.419300e+004
3.940000e+002, 1.403200e+004
3.950000e+002, 1.422300e+004
3.960000e+002, 1.438900e+004
3.970000e+002, 1.560800e+004
3.980000e+002, 1.874000e+004
3.990000e+002, 2.674500e+004
4.000000e+002, 4.234800e+004
4.010000e+002, 6.366300e+004
4.020000e+002, 6.866400e+004
4.030000e+002, 5.042100e+004
4.040000e+002, 6.097000e+004
4.050000e+002, 8.500300e+004
4.060000e+002, 9.610410e+004
4.070000e+002, 6.154200e+004
4.080000e+002, 3.449400e+004
4.090000e+002, 2.837500e+004
4.100000e+002, 2.658100e+004
4.110000e+002, 2.561100e+004
4.120000e+002, 2.453000e+004
4.130000e+002, 2.485300e+004
4.140000e+002, 2.516100e+004
4.150000e+002, 2.584100e+004
4.160000e+002, 2.602600e+004
4.170000e+002, 2.564800e+004
4.180000e+002, 2.497400e+004
4.190000e+002, 2.421300e+004
4.200000e+002, 2.416900e+004
4.210000e+002, 2.403900e+004
4.220000e+002, 2.409600e+004
4.230000e+002, 2.381400e+004
4.240000e+002, 2.389900e+004
4.250000e+002, 2.389100e+004
4.260000e+002, 2.384900e+004
4.270000e+002, 2.415900e+004
4.280000e+002, 2.402000e+004
4.290000e+002, 2.431600e+004
4.300000e+002, 2.414200e+004
4.310000e+002, 2.453500e+004
4.320000e+002, 2.494700e+004
4.330000e+002, 2.478300e+004
4.340000e+002, 2.510300e+004
4.350000e+002, 2.484200e+004
4.360000e+002, 2.551600e+004
4.370000e+002, 2.537200e+004
4.380000e+002, 2.555200e+004
4.390000e+002, 2.598400e+004
4.400000e+002, 2.619400e+004
4.410000e+002, 2.625300e+004
4.420000e+002, 2.622000e+004
4.430000e+002, 2.649400e+004
4.440000e+002, 2.596000e+004
4.450000e+002, 2.614700e+004
4.460000e+002, 2.622400e+004
4.470000e+002, 2.587700e+004
4.480000e+002, 2.608600e+004
4.490000e+002, 2.535100e+004
4.500000e+002, 2.511800e+004
4.510000e+002, 2.448300e+004
4.520000e+002, 2.422800e+004
4.530000e+002, 2.371600e+004
4.540000e+002, 2.332300e+004
4.550000e+002, 2.332300e+004
4.560000e+002, 2.248800e+004
4.570000e+002, 2.238700e+004
4.580000e+002, 2.216900e+004
4.590000e+002, 2.200800e+004
4.600000e+002, 2.178300e+004
4.610000e+002, 2.158200e+004
4.620000e+002, 2.157500e+004
4.630000e+002, 2.142000e+004
4.640000e+002, 2.177800e+004
4.650000e+002, 2.160600e+004
4.660000e+002, 2.142900e+004
4.670000e+002, 2.107300e+004
4.680000e+002, 2.134200e+004
4.690000e+002, 2.124300e+004
4.700000e+002, 2.094200e+004
4.710000e+002, 2.112700e+004
4.720000e+002, 2.118700e+004
4.730000e+002, 2.130400e+004
4.740000e+002, 2.101400e+004
4.750000e+002, 2.093600e+004
4.760000e+002, 2.121500e+004
4.770000e+002, 2.099300e+004
4.780000e+002, 2.081000e+004
4.790000e+002, 2.088000e+004
4.800000e+002, 2.060900e+004
4.810000e+002, 2.112200e+004
4.820000e+002, 2.063800e+004
4.830000e+002, 2.086300e+004
4.840000e+002, 2.094700e+004
4.850000e+002, 2.051500e+004
4.860000e+002, 2.057900e+004
4.870000e+002, 2.038800e+004
4.880000e+002, 2.019700e+004
4.890000e+002, 2.020900e+004
4.900000e+002, 2.041700e+004
4.910000e+002, 2.027700e+004
4.920000e+002, 1.982800e+004
4.930000e+002, 2.021500e+004
4.940000e+002, 1.997000e+004
4.950000e+002, 2.040000e+004
4.960000e+002, 2.006500e+004
4.970000e+002, 2.061600e+004
4.980000e+002, 2.073300e+004
4.990000e+002, 2.206900e+004
5.000000e+002, 2.206200e+004
5.010000e+002, 2.164800e+004
5.020000e+002, 2.104200e+004
5.030000e+002, 2.039600e+004
5.040000e+002, 2.008200e+004
5.050000e+002, 1.965700e+004
5.060000e+002, 1.940500e+004
5.070000e+002, 1.966300e+004
5.080000e+002, 1.951000e+004
5.090000e+002, 1.956700e+004
5.100000e+002, 1.970700e+004
5.110000e+002, 1.946000e+004
5.120000e+002, 1.933600e+004
5.130000e+002, 1.927400e+004
5.140000e+002, 1.908300e+004
5.150000e+002, 1.890800e+004
5.160000e+002, 1.897900e+004
5.170000e+002, 1.877600e+004
5.180000e+002, 1.854000e+004
5.190000e+002, 1.853900e+004
5.200000e+002, 1.815700e+004
5.210000e+002, 1.832700e+004
5.220000e+002, 1.831000e+004
5.230000e+002, 1.810800e+004
5.240000e+002, 1.773900e+004
5.250000e+002, 1.763900e+004
5.260000e+002, 1.773900e+004
5.270000e+002, 1.762800e+004
5.280000e+002, 1.761700e+004
5.290000e+002, 1.782900e+004
5.300000e+002, 1.922900e+004
5.310000e+002, 2.262700e+004
5.320000e+002, 2.371400e+004
5.330000e+002, 2.298000e+004
5.340000e+002, 2.335800e+004
5.350000e+002, 2.276300e+004
5.360000e+002, 2.137600e+004
5.370000e+002, 2.078300e+004
5.380000e+002, 2.032900e+004
5.390000e+002, 1.975300e+004
5.400000e+002, 2.052100e+004
5.410000e+002, 2.122200e+004
5.420000e+002, 2.128900e+004
5.430000e+002, 2.159900e+004
5.440000e+002, 2.164200e+004
5.450000e+002, 2.078600e+004
5.460000e+002, 2.012400e+004
5.470000e+002, 1.944700e+004
5.480000e+002, 1.944000e+004
5.490000e+002, 1.892800e+004
5.500000e+002, 1.916400e+004
5.510000e+002, 1.952600e+004
5.520000e+002, 1.992700e+004
5.530000e+002, 1.995100e+004
5.540000e+002, 2.007500e+004
5.550000e+002, 1.992300e+004
5.560000e+002, 1.971900e+004
5.570000e+002, 1.986000e+004
5.580000e+002, 1.985600e+004
5.590000e+002, 1.970300e+004
5.600000e+002, 1.972300e+004
5.610000e+002, 1.983600e+004
5.620000e+002, 1.940400e+004
5.630000e+002, 1.945200e+004
5.640000e+002, 1.962000e+004
5.650000e+002, 1.955200e+004
5.660000e+002, 1.968800e+004
5.670000e+002, 1.963700e+004
5.680000e+002, 1.936900e+004
5.690000e+002, 1.893500e+004
5.700000e+002, 1.867600e+004
5.710000e+002, 1.873900e+004
5.720000e+002, 1.827200e+004
5.730000e+002, 1.786700e+004
5.740000e+002, 1.832500e+004
5.750000e+002, 1.761500e+004
5.760000e+002, 1.761700e+004
5.770000e+002, 1.785300e+004
5.780000e+002, 1.759000e+004
5.790000e+002, 1.769900e+004
5.800000e+002, 1.729600e+004
5.810000e+002, 1.738200e+004
5.820000e+002, 1.742900e+004
5.830000e+002, 1.737700e+004
5.840000e+002, 1.714800e+004
5.850000e+002, 1.707800e+004
5.860000e+002, 1.695100e+004
5.870000e+002, 1.688200e+004
5.880000e+002, 1.667700e+004
5.890000e+002, 1.675900e+004
5.900000e+002, 1.682800e+004
5.910000e+002, 1.690200e+004
5.920000e+002, 1.676700e+004
5.930000e+002, 1.638800e+004
5.940000e+002, 1.660300e+004
5.950000e+002, 1.614500e+004
5.960000e+002, 1.641200e+004
5.970000e+002, 1.613100e+004
5.980000e+002, 1.641600e+004
5.990000e+002, 1.643900e+004
6.000000e+002, 1.613800e+004
6.010000e+002, 1.604700e+004
6.020000e+002, 1.613800e+004
6.030000e+002, 1.635000e+004
6.040000e+002, 1.598800e+004
6.050000e+002, 1.597300e+004
6.060000e+002, 1.600700e+004
6.070000e+002, 1.585800e+004
6.080000e+002, 1.610500e+004
6.090000e+002, 1.578500e+004
6.100000e+002, 1.575500e+004
6.110000e+002, 1.582000e+004
6.120000e+002, 1.560600e+004
6.130000e+002, 1.570500e+004
6.140000e+002, 1.541500e+004
6.150000e+002, 1.554900e+004
6.160000e+002, 1.539900e+004
6.170000e+002, 1.502400e+004
6.180000e+002, 1.501500e+004
6.190000e+002, 1.482800e+004
6.200000e+002, 1.493100e+004
6.210000e+002, 1.494700e+004
6.220000e+002, 1.496700e+004
6.230000e+002, 1.467300e+004
6.240000e+002, 1.482400e+004
6.250000e+002, 1.458300e+004
6.260000e+002, 1.459600e+004
6.270000e+002, 1.426400e+004
6.280000e+002, 1.421100e+004
6.290000e+002, 1.404700e+004
6.300000e+002, 1.426000e+004
6.310000e+002, 1.410900e+004
6.320000e+002, 1.409500e+004
6.330000e+002, 1.404600e+004
6.340000e+002, 1.385100e+004
6.350000e+002, 1.374700e+004
6.360000e+002, 1.383600e+004
6.370000e+002, 1.348000e+004
6.380000e+002, 1.363800e+004
6.390000e+002, 1.370800e+004
6.400000e+002, 1.366100e+004
6.410000e+002, 1.338400e+004
6.420000e+002, 1.335700e+004
6.430000e+002, 1.340900e+004
6.440000e+002, 1.319800e+004
6.450000e+002, 1.328100e+004
6.460000e+002, 1.330700e+004
6.470000e+002, 1.342300e+004
6.480000e+002, 1.299900e+004
6.490000e+002, 1.294700e+004
6.500000e+002, 1.288900e+004
6.510000e+002, 1.305300e+004
6.520000e+002, 1.286500e+004
6.530000e+002, 1.281000e+004
6.540000e+002, 1.290200e+004
6.550000e+002, 1.280800e+004
6.560000e+002, 1.276300e+004
6.570000e+002, 1.266800e+004
6.580000e+002, 1.256500e+004
6.590000e+002, 1.269600e+004
6.600000e+002, 1.240400e+004
6.610000e+002, 1.251000e+004
6.620000e+002, 1.225400e+004
6.630000e+002, 1.232500e+004
6.640000e+002, 1.224100e+004
6.650000e+002, 1.241500e+004
6.660000e+002, 1.225400e+004
6.670000e+002, 1.204000e+004
6.680000e+002, 1.218900e+004
6.690000e+002, 1.199100e+004
6.700000e+002, 1.210000e+004
6.710000e+002, 1.204900e+004
6.720000e+002, 1.203700e+004
6.730000e+002, 1.199000e+004
6.740000e+002, 1.198700e+004
6.750000e+002, 1.168700e+004
6.760000e+002, 1.180800e+004
6.770000e+002, 1.167800e+004
6.780000e+002, 1.182900e+004
6.790000e+002, 1.155200e+004
6.800000e+002, 1.157400e+004
6.810000e+002, 1.168500e+004
6.820000e+002, 1.149000e+004
6.830000e+002, 1.172700e+004
6.840000e+002, 1.143200e+004
6.850000e+002, 1.141700e+004
6.860000e+002, 1.131500e+004
6.870000e+002, 1.105000e+004
6.880000e+002, 1.126700e+004
6.890000e+002, 1.129100e+004
6.900000e+002, 1.097000e+004
6.910000e+002, 1.112800e+004
6.920000e+002, 1.100900e+004
6.930000e+002, 1.098800e+004
6.940000e+002, 1.103900e+004
6.950000e+002, 1.100900e+004
6.960000e+002, 1.082400e+004
6.970000e+002, 1.068500e+004
6.980000e+002, 1.086900e+004
6.990000e+002, 1.081300e+004
7.000000e+002, 1.056200e+004
7.010000e+002, 1.059300e+004
7.020000e+002, 1.068200e+004
7.030000e+002, 1.057300e+004
7.040000e+002, 1.052000e+004
7.050000e+002, 1.061700e+004
7.060000e+002, 1.049600e+004
7.070000e+002, 1.043300e+004
7.080000e+002, 1.022900e+004
7.090000e+002, 1.030000e+004
7.100000e+002, 1.041600e+004
7.110000e+002, 1.012200e+004
7.120000e+002, 1.004100e+004
7.130000e+002, 1.014100e+004
7.140000e+002, 1.012700e+004
7.150000e+002, 1.010100e+004
7.160000e+002, 9.904000e+003
7.170000e+002, 9.984000e+003
7.180000e+002, 1.002000e+004
7.190000e+002, 9.827000e+003
7.200000e+002, 9.681000e+003
7.210000e+002, 9.872000e+003
7.220000e+002, 9.811000e+003
7.230000e+002, 9.754000e+003
7.240000e+002, 9.888010e+003
7.250000e+002, 9.687000e+003
7.260000e+002, 9.703000e+003
7.270000e+002, 9.668000e+003
7.280000e+002, 9.420000e+003
7.290000e+002, 9.527000e+003
7.300000e+002, 9.603010e+003
7.310000e+002, 9.441000e+003
7.320000e+002, 9.397000e+003
7.330000e+002, 9.513000e+003
7.340000e+002, 9.259000e+003
7.350000e+002, 9.556000e+003
7.360000e+002, 9.301010e+003
7.370000e+002, 9.157000e+003
7.380000e+002, 9.078000e+003
7.390000e+002, 9.260000e+003
7.400000e+002, 9.086010e+003
7.410000e+002, 9.185000e+003
7.420000e+002, 9.261000e+003
7.430000e+002, 9.064010e+003
7.440000e+002, 8.932000e+003
7.450000e+002, 9.033000e+003
7.460000e+002, 8.916000e+003
7.470000e+002, 8.878000e+003
7.480000e+002, 8.831000e+003
7.490000e+002, 8.977000e+003
7.500000e+002, 8.896000e+003
7.510000e+002, 8.836000e+003
7.520000e+002, 8.955000e+003
7.530000e+002, 8.898000e+003
7.540000e+002, 8.688000e+003
7.550000e+002, 8.721000e+003
7.560000e+002, 8.726000e+003
7.570000e+002, 8.793000e+003
7.580000e+002, 8.546010e+003
7.590000e+002, 8.585000e+003
7.600000e+002, 8.301000e+003
7.610000e+002, 8.562000e+003
7.620000e+002, 8.464000e+003
7.630000e+002, 8.457000e+003
7.640000e+002, 8.406000e+003
7.650000e+002, 8.362000e+003
7.660000e+002, 8.446000e+003
7.670000e+002, 8.374000e+003
7.680000e+002, 8.353010e+003
7.690000e+002, 8.304000e+003
7.700000e+002, 8.432000e+003
7.710000e+002, 8.290000e+003
7.720000e+002, 8.339000e+003
7.730000e+002, 8.130000e+003
7.740000e+002, 8.013000e+003
7.750000e+002, 8.132000e+003
7.760000e+002, 8.079000e+003
7.770000e+002, 7.926000e+003
7.780000e+002, 8.022010e+003
7.790000e+002, 8.016000e+003
7.800000e+002, 7.991010e+003
7.810000e+002, 7.956000e+003
7.820000e+002, 7.944000e+003
7.830000e+002, 7.868000e+003
7.840000e+002, 7.879000e+003
7.850000e+002, 7.677000e+003
7.860000e+002, 7.611010e+003
7.870000e+002, 7.694010e+003
7.880000e+002, 7.659000e+003
7.890000e+002, 7.784000e+003
7.900000e+002, 7.638000e+003
7.910000e+002, 7.640000e+003
7.920000e+002, 7.817000e+003
7.930000e+002, 7.635000e+003
7.940000e+002, 7.451000e+003
7.950000e+002, 7.419000e+003
7.960000e+002, 7.483000e+003
7.970000e+002, 7.593000e+003
7.980000e+002, 7.470000e+003
7.990000e+002, 7.531010e+003
8.000000e+002, 7.487000e+003
8.010000e+002, 7.293000e+003
8.020000e+002, 7.344000e+003
8.030000e+002, 7.477000e+003
8.040000e+002, 7.203000e+003
8.050000e+002, 7.464000e+003
8.060000e+002, 7.243000e+003
8.070000e+002, 7.202000e+003
8.080000e+002, 7.081000e+003
8.090000e+002, 7.085000e+003
8.100000e+002, 7.227000e+003
8.110000e+002, 7.195000e+003
8.120000e+002, 7.045000e+003
8.130000e+002, 7.281000e+003
8.140000e+002, 6.994000e+003
8.150000e+002, 7.188000e+003
8.160000e+002, 7.000000e+003
8.170000e+002, 7.029000e+003
8.180000e+002, 6.885000e+003
8.190000e+002, 7.079000e+003
8.200000e+002, 6.920000e+003
8.210000e+002, 6.834000e+003
8.220000e+002, 6.791000e+003
8.230000e+002, 6.763000e+003
8.240000e+002, 7.036000e+003
8.250000e+002, 7.034000e+003
8.260000e+002, 6.796000e+003
8.270000e+002, 6.759000e+003
8.280000e+002, 6.676000e+003
8.290000e+002, 6.779000e+003
8.300000e+002, 6.759000e+003
8.310000e+002, 6.545000e+003
8.320000e+002, 6.506000e+003
8.330000e+002, 6.525000e+003
8.340000e+002, 6.770000e+003
8.350000e+002, 6.605000e+003
8.360000e+002, 6.595000e+003
8.370000e+002, 6.428000e+003
8.380000e+002, 6.575000e+003
8.390000e+002, 6.559000e+003
8.400000e+002, 6.395000e+003
8.410000e+002, 6.388000e+003
8.420000e+002, 6.362000e+003
8.430000e+002, 6.265000e+003
8.440000e+002, 6.460010e+003
8.450000e+002, 6.283000e+003
8.460000e+002, 6.334000e+003
8.470000e+002, 6.204000e+003
8.480000e+002, 6.278000e+003
8.490000e+002, 6.342000e+003
8.500000e+002, 6.082000e+003
8.510000e+002, 6.158000e+003
8.520000e+002, 6.138000e+003
8.530000e+002, 6.290000e+003
8.540000e+002, 6.235000e+003
8.550000e+002, 6.126000e+003
8.560000e+002, 6.194000e+003
8.570000e+002, 6.032000e+003
8.580000e+002, 6.144000e+003
8.590000e+002, 6.013000e+003
8.600000e+002, 6.000000e+003
8.610000e+002, 5.974000e+003
8.620000e+002, 6.028000e+003
8.630000e+002, 5.868000e+003
8.640000e+002, 6.045000e+003
8.650000e+002, 6.017000e+003
8.660000e+002, 5.841000e+003
8.670000e+002, 5.939000e+003
8.680000e+002, 5.916000e+003
8.690000e+002, 5.856000e+003
8.700000e+002, 5.809000e+003
8.710000e+002, 5.796000e+003
8.720000e+002, 5.958000e+003
8.730000e+002, 5.858000e+003
8.740000e+002, 5.602000e+003
8.750000e+002, 5.815000e+003
8.760000e+002, 5.810000e+003
8.770000e+002, 5.754000e+003
8.780000e+002, 5.892000e+003
8.790000e+002, 5.677000e+003
8.800000e+002, 5.711000e+003
8.810000e+002, 5.735000e+003
8.820000e+002, 5.737000e+003
8.830000e+002, 5.713000e+003
8.840000e+002, 5.666000e+003
8.850000e+002, 5.671000e+003
8.860000e+002, 5.476000e+003
8.870000e+002, 5.474000e+003
8.880000e+002, 5.694000e+003
8.890000e+002, 5.507000e+003
8.900000e+002, 5.604000e+003
8.910000e+002, 5.525000e+003
8.920000e+002, 5.481000e+003
8.930000e+002, 5.523000e+003
8.940000e+002, 5.620000e+003
8.950000e+002, 5.393000e+003
8.960000e+002, 5.430000e+003
8.970000e+002, 5.424000e+003
8.980000e+002, 5.458000e+003
8.990000e+002, 5.406000e+003
9.000000e+002, 5.322000e+003
9.010000e+002, 5.284000e+003
9.020000e+002, 5.412000e+003
9.030000e+002, 5.277000e+003
9.040000e+002, 5.437000e+003
9.050000e+002, 5.375000e+003
9.060000e+002, 5.304000e+003
9.070000e+002, 5.152000e+003
9.080000e+002, 5.233000e+003
9.090000e+002, 5.223000e+003
9.100000e+002, 5.335000e+003
9.110000e+002, 5.134000e+003
9.120000e+002, 5.237000e+003
9.130000e+002, 5.277000e+003
9.140000e+002, 5.090000e+003
9.150000e+002, 5.095000e+003
9.160000e+002, 5.164000e+003
9.170000e+002, 4.965000e+003
9.180000e+002, 5.028000e+003
9.190000e+002, 5.066000e+003
9.200000e+002, 4.990000e+003
9.210000e+002, 4.977000e+003
9.220000e+002, 5.062000e+003
9.230000e+002, 4.905000e+003
9.240000e+002, 5.006000e+003
9.250000e+002, 5.021000e+003
9.260000e+002, 4.943000e+003
9.270000e+002, 4.995000e+003
9.280000e+002, 4.948000e+003
9.290000e+002, 4.824000e+003
9.300000e+002, 4.845000e+003
9.310000e+002, 4.967000e+003
9.320000e+002, 4.829000e+003
9.330000e+002, 4.760000e+003
9.340000e+002, 4.788000e+003
9.350000e+002, 4.745000e+003
9.360000e+002, 4.874000e+003
9.370000e+002, 4.700000e+003
9.380000e+002, 4.777000e+003
9.390000e+002, 4.777000e+003
9.400000e+002, 4.792000e+003
9.410000e+002, 4.757000e+003
9.420000e+002, 4.844000e+003
9.430000e+002, 4.834000e+003
9.440000e+002, 4.745000e+003
9.450000e+002, 4.661000e+003
9.460000e+002, 4.790000e+003
9.470000e+002, 4.687000e+003
9.480000e+002, 4.667000e+003
9.490000e+002, 4.670000e+003
9.500000e+002, 4.669000e+003
9.510000e+002, 4.468000e+003
9.520000e+002, 4.513000e+003
9.530000e+002, 4.491000e+003
9.540000e+002, 4.481000e+003
9.550000e+002, 4.621000e+003
9.560000e+002, 1.000000e-001
#ENDOFDATA   : End Of Data and File